%OpenBCI Raw EEG Data
%Number of channels = 8
%Sample Rate = 250 Hz
%Board = OpenBCI_GUI$BoardCytonSerial
Sample Index, EXG Channel 0, EXG Channel 1, EXG Channel 2, EXG Channel 3, EXG Channel 4, EXG Channel 5, EXG Channel 6, EXG Channel 7, Accel Channel 0, Accel Channel 1, Accel Channel 2, Other, Other, Other, Other, Other, Other, Other, Analog Channel 0, Analog Channel 1, Analog Channel 2, Timestamp, Other, Timestamp (Formatted)
0.0, 0.0, 0.0, 0.0, 0.0, 0.0, 0.0, 0.0, 0.0, -0.096, -0.166, 0.982, 192.0, 253.0, 0.0, 250.0, 208.0, 30.0, 176.0, 0.0, 0.0, 0.0, 1.706088515318075E9, 0.0, 2024-01-24 16:28:35.318
1.0, 149529.41531293574, -8531.68321033516, -1989.0593873333203, -89195.73148438115, 187500.0, 22067.832597235752, -187500.02235174447, -187500.02235174447, -0.096, -0.166, 0.982, 192.0, 0.0, 0.0, 0.0, 0.0, 0.0, 0.0, 0.0, 0.0, 0.0, 1.7060885153350487E9, 0.0, 2024-01-24 16:28:35.335
2.0, 137464.86007748367, -12301.774299356259, -13825.693884574639, -82734.3786042188, 187500.0, 37170.01225590852, -187500.02235174447, -187500.02235174447, -0.096, -0.166, 0.982, 192.0, 0.0, 0.0, 0.0, 0.0, 0.0, 0.0, 0.0, 0.0, 0.0, 1.706088515338044E9, 0.0, 2024-01-24 16:28:35.338
3.0, 147901.49306076684, -11632.16073896417, 4303.068435557894, -88705.62478370963, 187500.0, -3164.939959638114, -187500.02235174447, -187500.02235174447, -0.096, -0.166, 0.982, 192.0, 0.0, 0.0, 0.0, 0.0, 0.0, 0.0, 0.0, 0.0, 0.0, 1.7060885153410769E9, 0.0, 2024-01-24 16:28:35.341
4.0, 158236.604420734, -9982.087908040037, 15400.418984939932, -96710.05269408855, 187500.0, -20067.373820230227, -187500.02235174447, -187500.02235174447, -0.096, -0.166, 0.982, 192.0, 0.0, 0.0, 0.0, 0.0, 0.0, 0.0, 0.0, 0.0, 0.0, 1.7060885153451464E9, 0.0, 2024-01-24 16:28:35.345
5.0, 160280.42558198282, -8438.319973745343, 14672.646185475134, -98181.28921762577, 187500.0, -14563.770838233333, -187500.02235174447, -187500.02235174447, -0.096, -0.166, 0.982, 192.0, 0.0, 0.0, 0.0, 0.0, 0.0, 0.0, 0.0, 0.0, 0.0, 1.7060885153490982E9, 0.0, 2024-01-24 16:28:35.349
6.0, 149657.4237534313, -8502.692997776629, -1907.0955404157091, -89208.24846127612, 187500.0, 22185.983918426504, -187500.02235174447, -187500.02235174447, -0.096, -0.166, 0.982, 192.0, 0.0, 0.0, 0.0, 0.0, 0.0, 0.0, 0.0, 0.0, 0.0, 1.7060885153530672E9, 0.0, 2024-01-24 16:28:35.353
7.0, 137514.0115635409, -12302.601313901105, -13874.063059575923, -82734.19979026316, 187500.0, 37422.02817464211, -187500.02235174447, -187500.02235174447, -0.096, -0.164, 0.984, 192.0, 253.0, 0.0, 250.0, 224.0, 30.0, 192.0, 0.0, 0.0, 0.0, 1.7060885153571162E9, 0.0, 2024-01-24 16:28:35.357
8.0, 147906.47749978036, -11670.225759771558, 4288.808022595408, -88618.07300067818, 187500.0, -3143.4152297276532, -187500.02235174447, -187500.02235174447, -0.096, -0.164, 0.984, 192.0, 0.0, 0.0, 0.0, 0.0, 0.0, 0.0, 0.0, 0.0, 0.0, 1.706088515361094E9, 0.0, 2024-01-24 16:28:35.361
9.0, 158310.58869488107, -9978.958663816293, 15475.2526253763, -96583.18419256022, 187500.0, -20092.11720134225, -187500.02235174447, -187500.02235174447, -0.096, -0.164, 0.984, 192.0, 0.0, 0.0, 0.0, 0.0, 0.0, 0.0, 0.0, 0.0, 0.0, 1.70608851536514E9, 0.0, 2024-01-24 16:28:35.365
10.0, 160407.51760095567, -8407.295752441378, 14783.242617039994, -98092.06105376019, 187500.0, -14561.69212599899, -187500.02235174447, -187500.02235174447, -0.096, -0.164, 0.984, 192.0, 0.0, 0.0, 0.0, 0.0, 0.0, 0.0, 0.0, 0.0, 0.0, 1.706088515368136E9, 0.0, 2024-01-24 16:28:35.368
11.0, 149832.86259566102, -8440.510444701964, -1785.0550156897327, -89200.13477803885, 187500.0, 22298.636710481253, -187500.02235174447, -187500.02235174447, -0.096, -0.164, 0.984, 192.0, 0.0, 0.0, 0.0, 0.0, 0.0, 0.0, 0.0, 0.0, 0.0, 1.7060885153721304E9, 0.0, 2024-01-24 16:28:35.372
12.0, 137587.9287824546, -12283.33411018063, -13890.13396383929, -82720.85579882334, 187500.0, 37701.156759399986, -187500.02235174447, -187500.02235174447, -0.096, -0.164, 0.984, 192.0, 0.0, 0.0, 0.0, 0.0, 0.0, 0.0, 0.0, 0.0, 0.0, 1.7060885153771122E9, 0.0, 2024-01-24 16:28:35.377
13.0, 147866.26671150528, -11739.22559490509, 4234.113303913272, -88555.19754352541, 187500.0, -3122.873976573226, -187500.02235174447, -187500.02235174447, -0.096, -0.164, 0.984, 192.0, 0.0, 0.0, 0.0, 0.0, 0.0, 0.0, 0.0, 0.0, 0.0, 1.7060885153811064E9, 0.0, 2024-01-24 16:28:35.381
14.0, 158267.91921471586, -10061.950690978849, 15442.663781960462, -96516.66540106123, 187500.0, -20163.195748710128, -187500.02235174447, -187500.02235174447, -0.096, -0.164, 0.984, 192.0, 0.0, 0.0, 0.0, 0.0, 0.0, 0.0, 0.0, 0.0, 0.0, 1.70608851538511E9, 0.0, 2024-01-24 16:28:35.385
15.0, 160320.2340388577, -8535.192434214645, 14730.53720361438, -98095.8608503176, 187500.0, -14654.89890037762, -187500.02235174447, -187500.02235174447, -0.096, -0.164, 0.984, 192.0, 0.0, 0.0, 0.0, 0.0, 0.0, 0.0, 0.0, 0.0, 0.0, 1.7060885153891568E9, 0.0, 2024-01-24 16:28:35.389
16.0, 149834.42721777287, -8493.931113950148, -1752.0191373847888, -89248.43689780675, 187500.0, 22312.78536472146, -187500.02235174447, -187500.02235174447, -0.096, -0.164, 0.984, 192.0, 0.0, 0.0, 0.0, 0.0, 0.0, 0.0, 0.0, 0.0, 0.0, 1.7060885153931408E9, 0.0, 2024-01-24 16:28:35.393
17.0, 137619.40003864767, -12263.32929889313, -13881.483838735085, -82686.79174027345, 187500.0, 37940.36512856068, -187500.02235174447, -187500.02235174447, -0.094, -0.162, 0.984, 192.0, 253.0, 16.0, 250.0, 240.0, 30.0, 192.0, 0.0, 0.0, 0.0, 1.70608851539714E9, 0.0, 2024-01-24 16:28:35.397
18.0, 147862.51161843678, -11737.482158837576, 4197.724663940032, -88417.73431512527, 187500.0, -3009.796501373828, -187500.02235174447, -187500.02235174447, -0.094, -0.162, 0.984, 192.0, 0.0, 0.0, 0.0, 0.0, 0.0, 0.0, 0.0, 0.0, 0.0, 1.7060885154001417E9, 0.0, 2024-01-24 16:28:35.400
19.0, 158305.58190412307, -10061.950690978849, 15441.836767415616, -96414.69674285612, 187500.0, -20147.728341547056, -187500.02235174447, -187500.02235174447, -0.094, -0.162, 0.984, 192.0, 0.0, 0.0, 0.0, 0.0, 0.0, 0.0, 0.0, 0.0, 0.0, 1.706088515405166E9, 0.0, 2024-01-24 16:28:35.405
20.0, 160434.0044181352, -8504.771710010971, 14789.16582932065, -98029.94555591888, 187500.0, -14635.966972823975, -187500.02235174447, -187500.02235174447, -0.094, -0.162, 0.984, 192.0, 0.0, 0.0, 0.0, 0.0, 0.0, 0.0, 0.0, 0.0, 0.0, 1.706088515409186E9, 0.0, 2024-01-24 16:28:35.409
21.0, 149932.70783814287, -8494.422852328164, -1666.0096247207673, -89264.88778172586, 187500.0, 22379.035935286993, -187500.02235174447, -187500.02235174447, -0.094, -0.162, 0.984, 192.0, 0.0, 0.0, 0.0, 0.0, 0.0, 0.0, 0.0, 0.0, 0.0, 1.7060885154131668E9, 0.0, 2024-01-24 16:28:35.413
22.0, 137627.84899805178, -12292.475973662851, -13885.84242890387, -82690.88210950878, 187500.0, 38169.49286097203, -187500.02235174447, -187500.02235174447, -0.094, -0.162, 0.984, 192.0, 0.0, 0.0, 0.0, 0.0, 0.0, 0.0, 0.0, 0.0, 0.0, 1.7060885154161615E9, 0.0, 2024-01-24 16:28:35.416
23.0, 147783.8334779541, -11827.224412825635, 4108.585907052267, -88410.96173655531, 187500.0, -2971.1950386995127, -187500.02235174447, -187500.02235174447, -0.094, -0.162, 0.984, 192.0, 0.0, 0.0, 0.0, 0.0, 0.0, 0.0, 0.0, 0.0, 0.0, 1.7060885154202209E9, 0.0, 2024-01-24 16:28:35.420
24.0, 158258.41972332238, -10145.38975303051, 15368.85832176904, -96386.26532390897, 187500.0, -20222.539630238967, -187500.02235174447, -187500.02235174447, -0.094, -0.162, 0.984, 192.0, 0.0, 0.0, 0.0, 0.0, 0.0, 0.0, 0.0, 0.0, 0.0, 1.7060885154242127E9, 0.0, 2024-01-24 16:28:35.424
25.0, 160354.52161485216, -8621.783092234504, 14699.423575332592, -98042.48488455832, 187500.0, -14720.121290698205, -187500.02235174447, -187500.02235174447, -0.094, -0.162, 0.984, 192.0, 0.0, 0.0, 0.0, 0.0, 0.0, 0.0, 0.0, 0.0, 0.0, 1.7060885154281943E9, 0.0, 2024-01-24 16:28:35.428
26.0, 149962.61447222406, -8524.77652129847, -1609.0797315931002, -89289.83232853799, 187500.0, 22392.424630215723, -187500.02235174447, -187500.02235174447, -0.094, -0.162, 0.984, 192.0, 0.0, 0.0, 0.0, 0.0, 0.0, 0.0, 0.0, 0.0, 0.0, 1.7060885154332032E9, 0.0, 2024-01-24 16:28:35.433
27.0, 137633.6380998657, -12301.684892378438, -13854.572338410895, -82659.67907424916, 187500.0, 38397.79357883854, -187500.02235174447, -187500.02235174447, -0.098, -0.164, 0.992, 192.0, 252.0, 240.0, 250.0, 224.0, 31.0, 0.0, 0.0, 0.0, 0.0, 1.7060885154372313E9, 0.0, 2024-01-24 16:28:35.437
28.0, 147756.0726113406, -11839.473168787143, 4069.000967621919, -88306.75790390467, 187500.0, -2858.89987455605, -187500.02235174447, -187500.02235174447, -0.098, -0.164, 0.992, 192.0, 0.0, 0.0, 0.0, 0.0, 0.0, 0.0, 0.0, 0.0, 0.0, 1.706088515441228E9, 0.0, 2024-01-24 16:28:35.441
29.0, 158331.84520385804, -10102.027368787214, 15376.033231739191, -96284.69899710406, 187500.0, -20205.28408351947, -187500.02235174447, -187500.02235174447, -0.098, -0.164, 0.992, 192.0, 0.0, 0.0, 0.0, 0.0, 0.0, 0.0, 0.0, 0.0, 0.0, 1.7060885154442277E9, 0.0, 2024-01-24 16:28:35.444
30.0, 160458.09959865804, -8577.1243068128, 14719.048406964352, -97978.69300588287, 187500.0, -14699.557685799324, -187500.02235174447, -187500.02235174447, -0.098, -0.164, 0.992, 192.0, 0.0, 0.0, 0.0, 0.0, 0.0, 0.0, 0.0, 0.0, 0.0, 1.7060885154482663E9, 0.0, 2024-01-24 16:28:35.448
31.0, 150033.06717074718, -8526.855233532815, -1536.5930243245393, -89290.61463959393, 187500.0, 22433.06010163547, -187500.02235174447, -187500.02235174447, -0.098, -0.164, 0.992, 192.0, 0.0, 0.0, 0.0, 0.0, 0.0, 0.0, 0.0, 0.0, 0.0, 1.7060885154522414E9, 0.0, 2024-01-24 16:28:35.452
32.0, 137578.80927071683, -12366.750820487836, -13854.97466981109, -82656.57218176988, 187500.0, 38573.16536583488, -187500.02235174447, -187500.02235174447, -0.098, -0.164, 0.992, 192.0, 0.0, 0.0, 0.0, 0.0, 0.0, 0.0, 0.0, 0.0, 0.0, 1.7060885154562452E9, 0.0, 2024-01-24 16:28:35.456
33.0, 147602.091443788, -11962.921853413804, 3954.4706290329254, -88313.73164817473, 187500.0, -2833.5306445992765, -187500.02235174447, -187500.02235174447, -0.098, -0.164, 0.992, 192.0, 0.0, 0.0, 0.0, 0.0, 0.0, 0.0, 0.0, 0.0, 0.0, 1.7060885154602747E9, 0.0, 2024-01-24 16:28:35.460
34.0, 158170.1750362128, -10242.910414089014, 15228.131738678425, -96308.0789218043, 187500.0, -20294.53459912951, -187500.02235174447, -187500.02235174447, -0.098, -0.164, 0.992, 192.0, 0.0, 0.0, 0.0, 0.0, 0.0, 0.0, 0.0, 0.0, 0.0, 1.7060885154652605E9, 0.0, 2024-01-24 16:28:35.465
35.0, 160307.2923788181, -8711.368884011375, 14595.644425826602, -98022.36831454854, 187500.0, -14795.670186957144, -187500.02235174447, -187500.02235174447, -0.098, -0.164, 0.992, 192.0, 0.0, 0.0, 0.0, 0.0, 0.0, 0.0, 0.0, 0.0, 0.0, 1.706088515469296E9, 0.0, 2024-01-24 16:28:35.469
36.0, 149915.85462282356, -8632.668391784238, -1540.795152282137, -89340.68254717381, 187500.0, 22363.635583357285, -187500.02235174447, -187500.02235174447, -0.098, -0.164, 0.992, 192.0, 0.0, 0.0, 0.0, 0.0, 0.0, 0.0, 0.0, 0.0, 0.0, 1.7060885154723196E9, 0.0, 2024-01-24 16:28:35.472
37.0, 137536.38565974066, -12363.44276230845, -13785.706613744094, -82608.13595153522, 187500.0, 38730.52164680024, -187500.02235174447, -187500.02235174447, -0.092, -0.168, 0.99, 192.0, 253.0, 32.0, 250.0, 192.0, 30.0, 240.0, 0.0, 0.0, 0.0, 1.7060885154763288E9, 0.0, 2024-01-24 16:28:35.476
38.0, 147597.75520536368, -11926.041475062548, 3971.3685478411376, -88221.19542612975, 187500.0, -2709.34435240559, -187500.02235174447, -187500.02235174447, -0.092, -0.168, 0.99, 192.0, 0.0, 0.0, 0.0, 0.0, 0.0, 0.0, 0.0, 0.0, 0.0, 1.7060885154802923E9, 0.0, 2024-01-24 16:28:35.480
39.0, 158173.37133566992, -10231.667486627995, 15207.858706457462, -96249.20442690903, 187500.0, -20289.952491516175, -187500.02235174447, -187500.02235174447, -0.092, -0.168, 0.99, 192.0, 0.0, 0.0, 0.0, 0.0, 0.0, 0.0, 0.0, 0.0, 0.0, 1.7060885154862983E9, 0.0, 2024-01-24 16:28:35.486
40.0, 160325.77727148263, -8701.847040873414, 14581.182847164018, -97991.65701766695, 187500.0, -14798.061823613862, -187500.02235174447, -187500.02235174447, -0.092, -0.168, 0.99, 192.0, 0.0, 0.0, 0.0, 0.0, 0.0, 0.0, 0.0, 0.0, 0.0, 1.7060885154893444E9, 0.0, 2024-01-24 16:28:35.489
41.0, 149930.27149799722, -8645.52064484604, -1478.4337852518304, -89346.78457341011, 187500.0, 22353.66670533022, -187500.02235174447, -187500.02235174447, -0.092, -0.168, 0.99, 192.0, 0.0, 0.0, 0.0, 0.0, 0.0, 0.0, 0.0, 0.0, 0.0, 1.7060885154932878E9, 0.0, 2024-01-24 16:28:35.493
42.0, 137436.1380858586, -12438.611678911648, -13785.63955851073, -82604.91730033366, 187500.0, 38851.10930813662, -187500.02235174447, -187500.02235174447, -0.092, -0.168, 0.99, 192.0, 0.0, 0.0, 0.0, 0.0, 0.0, 0.0, 0.0, 0.0, 0.0, 1.706088515497382E9, 0.0, 2024-01-24 16:28:35.497
43.0, 147395.76249072107, -12055.86040685897, 3845.192950390929, -88216.23333886068, 187500.0, -2659.3211483146133, -187500.02235174447, -187500.02235174447, -0.092, -0.168, 0.99, 192.0, 0.0, 0.0, 0.0, 0.0, 0.0, 0.0, 0.0, 0.0, 0.0, 1.7060885155003128E9, 0.0, 2024-01-24 16:28:35.500
44.0, 158022.67587455225, -10334.552566355773, 15093.440126590745, -96258.92743574709, 187500.0, -20339.12632931785, -187500.02235174447, -187500.02235174447, -0.092, -0.168, 0.99, 192.0, 0.0, 0.0, 0.0, 0.0, 0.0, 0.0, 0.0, 0.0, 0.0, 1.7060885155043223E9, 0.0, 2024-01-24 16:28:35.504
45.0, 160196.09245015294, -8792.349254172952, 14486.992596029353, -98015.01459062274, 187500.0, -14860.579652855356, -187500.02235174447, -187500.02235174447, -0.092, -0.168, 0.99, 192.0, 0.0, 0.0, 0.0, 0.0, 0.0, 0.0, 0.0, 0.0, 0.0, 1.7060885155083227E9, 0.0, 2024-01-24 16:28:35.508
46.0, 149872.71575602482, -8689.665340145271, -1443.09567726799, -89365.22476258574, 187500.0, 22307.063318140903, -187500.02235174447, -187500.02235174447, -0.092, -0.168, 0.99, 192.0, 0.0, 0.0, 0.0, 0.0, 0.0, 0.0, 0.0, 0.0, 0.0, 1.7060885155123212E9, 0.0, 2024-01-24 16:28:35.512
47.0, 137360.63389308858, -12461.008126855866, -13747.663944681162, -82562.69485505759, 187500.0, 38985.1527196351, -187500.02235174447, -187500.02235174447, -0.088, -0.164, 0.988, 192.0, 253.0, 64.0, 250.0, 224.0, 30.0, 224.0, 0.0, 0.0, 0.0, 1.7060885155164163E9, 0.0, 2024-01-24 16:28:35.516
48.0, 147312.010504247, -12071.886607633425, 3810.8159674186672, -88130.08971572992, 187500.0, -2536.45360904379, -187500.02235174447, -187500.02235174447, -0.088, -0.164, 0.988, 192.0, 0.0, 0.0, 0.0, 0.0, 0.0, 0.0, 0.0, 0.0, 0.0, 1.7060885155204554E9, 0.0, 2024-01-24 16:28:35.520
49.0, 158031.66127582328, -10314.19012715699, 15087.785135243552, -96206.60200197721, 187500.0, -20306.24691322409, -187500.02235174447, -187500.02235174447, -0.088, -0.164, 0.988, 192.0, 0.0, 0.0, 0.0, 0.0, 0.0, 0.0, 0.0, 0.0, 0.0, 1.7060885155253725E9, 0.0, 2024-01-24 16:28:35.525
50.0, 160202.68621476725, -8797.065472253022, 14466.29488066374, -97993.86984036802, 187500.0, -14841.826539257354, -187500.02235174447, -187500.02235174447, -0.088, -0.164, 0.988, 192.0, 0.0, 0.0, 0.0, 0.0, 0.0, 0.0, 0.0, 0.0, 0.0, 1.7060885155293603E9, 0.0, 2024-01-24 16:28:35.529
51.0, 149811.02494132819, -8757.659346778315, -1434.3784969304202, -89384.89429770641, 187500.0, 22289.11486734329, -187500.02235174447, -187500.02235174447, -0.088, -0.164, 0.988, 192.0, 0.0, 0.0, 0.0, 0.0, 0.0, 0.0, 0.0, 0.0, 0.0, 1.70608851553234E9, 0.0, 2024-01-24 16:28:35.532
52.0, 137290.22589805437, -12492.188810371019, -13706.737900583496, -82514.90682541214, 187500.0, 39137.07752669782, -187500.02235174447, -187500.02235174447, -0.088, -0.164, 0.988, 192.0, 0.0, 0.0, 0.0, 0.0, 0.0, 0.0, 0.0, 0.0, 0.0, 1.7060885155364203E9, 0.0, 2024-01-24 16:28:35.536
53.0, 147266.39059381373, -12075.172314068355, 3824.7411042143235, -88028.90336858075, 187500.0, -2350.80001959801, -187500.02235174447, -187500.02235174447, -0.088, -0.164, 0.988, 192.0, 0.0, 0.0, 0.0, 0.0, 0.0, 0.0, 0.0, 0.0, 0.0, 1.706088515540388E9, 0.0, 2024-01-24 16:28:35.540
54.0, 157952.49139696258, -10346.197825216988, 15090.266178878092, -95994.32748488516, 187500.0, -20049.604183388255, -187500.02235174447, -187500.02235174447, -0.088, -0.164, 0.988, 192.0, 0.0, 0.0, 0.0, 0.0, 0.0, 0.0, 0.0, 0.0, 0.0, 1.7060885155444138E9, 0.0, 2024-01-24 16:28:35.544
55.0, 160103.22095194113, -8818.143167274377, 14497.430860689981, -97703.09599674893, 187500.0, -14490.501819908837, -187500.02235174447, -187500.02235174447, -0.088, -0.164, 0.988, 192.0, 0.0, 0.0, 0.0, 0.0, 0.0, 0.0, 0.0, 0.0, 0.0, 1.7060885155494933E9, 0.0, 2024-01-24 16:28:35.549
56.0, 149757.17958893534, -8735.665230234294, -1279.972646233159, -89071.76870963202, 187500.0, 22650.363761229964, -187500.02235174447, -187500.02235174447, -0.088, -0.164, 0.988, 192.0, 0.0, 0.0, 0.0, 0.0, 0.0, 0.0, 0.0, 0.0, 0.0, 1.7060885155534177E9, 0.0, 2024-01-24 16:28:35.553
57.0, 137215.2804988957, -12465.053792602277, -13550.432151607532, -82169.63942881102, 187500.0, 39630.33582333754, -187500.02235174447, -187500.02235174447, -0.084, -0.164, 0.988, 192.0, 253.0, 96.0, 250.0, 224.0, 30.0, 224.0, 0.0, 0.0, 0.0, 1.7060885155564413E9, 0.0, 2024-01-24 16:28:35.556
58.0, 147111.04596984937, -12115.852488977014, 3851.4514388384155, -87728.85355101271, 187500.0, -1949.5415031363373, -187500.02235174447, -187500.02235174447, -0.084, -0.164, 0.988, 192.0, 0.0, 0.0, 0.0, 0.0, 0.0, 0.0, 0.0, 0.0, 0.0, 1.7060885155614994E9, 0.0, 2024-01-24 16:28:35.561
59.0, 157828.21569779108, -10400.601971221206, 15064.31580356548, -95843.45320981184, 187500.0, -19917.460670168482, -187500.02235174447, -187500.02235174447, -0.084, -0.164, 0.988, 192.0, 0.0, 0.0, 0.0, 0.0, 0.0, 0.0, 0.0, 0.0, 0.0, 1.7060885155645196E9, 0.0, 2024-01-24 16:28:35.564
60.0, 159978.7217353251, -8907.214868928775, 14432.879022703055, -97662.57228405146, 187500.0, -14466.33958415265, -187500.02235174447, -187500.02235174447, -0.084, -0.164, 0.988, 192.0, 0.0, 0.0, 0.0, 0.0, 0.0, 0.0, 0.0, 0.0, 0.0, 1.7060885155684948E9, 0.0, 2024-01-24 16:28:35.568
61.0, 149615.7153982777, -8844.585280965004, -1295.3059429294997, -89084.71036967164, 187500.0, 22600.832295517004, -187500.02235174447, -187500.02235174447, -0.084, -0.164, 0.988, 192.0, 0.0, 0.0, 0.0, 0.0, 0.0, 0.0, 0.0, 0.0, 0.0, 1.7060885155724747E9, 0.0, 2024-01-24 16:28:35.572
62.0, 137064.80855522258, -12558.573491403282, -13618.157937307113, -82297.69257279547, 187500.0, 39523.20391216325, -187500.02235174447, -187500.02235174447, -0.084, -0.164, 0.988, 192.0, 0.0, 0.0, 0.0, 0.0, 0.0, 0.0, 0.0, 0.0, 0.0, 1.7060885155764697E9, 0.0, 2024-01-24 16:28:35.576
63.0, 147086.41434745962, -12123.563840814095, 3768.727632609324, -87875.36923591724, 187500.0, -2099.6558188981794, -187500.02235174447, -187500.02235174447, -0.084, -0.164, 0.988, 192.0, 0.0, 0.0, 0.0, 0.0, 0.0, 0.0, 0.0, 0.0, 0.0, 1.7060885155814643E9, 0.0, 2024-01-24 16:28:35.581
64.0, 157805.01458704646, -10452.279204401875, 14932.440511279168, -96057.09118331566, 187500.0, -20194.443487458648, -187500.02235174447, -187500.02235174447, -0.084, -0.164, 0.988, 192.0, 0.0, 0.0, 0.0, 0.0, 0.0, 0.0, 0.0, 0.0, 0.0, 1.7060885155844555E9, 0.0, 2024-01-24 16:28:35.584
65.0, 159995.93257855566, -8938.641421632938, 14329.16692843043, -97914.25292661821, 187500.0, -14784.78488740741, -187500.02235174447, -187500.02235174447, -0.084, -0.164, 0.988, 192.0, 0.0, 0.0, 0.0, 0.0, 0.0, 0.0, 0.0, 0.0, 0.0, 1.7060885155884488E9, 0.0, 2024-01-24 16:28:35.588
66.0, 149709.7268354567, -8821.406521964851, -1276.8210502649606, -89299.84591005396, 187500.0, 22319.535591546966, -187500.02235174447, -187500.02235174447, -0.084, -0.166, 0.988, 192.0, 253.0, 96.0, 250.0, 208.0, 30.0, 224.0, 0.0, 0.0, 0.0, 1.7060885155924716E9, 0.0, 2024-01-24 16:28:35.592
67.0, 137057.7007004858, -12572.58803517676, -13596.275579485367, -82337.83630583719, 187500.0, 39569.472023185735, -187500.02235174447, -187500.02235174447, -0.084, -0.166, 0.988, 192.0, 0.0, 0.0, 0.0, 0.0, 0.0, 0.0, 0.0, 0.0, 0.0, 1.7060885155964863E9, 0.0, 2024-01-24 16:28:35.596
68.0, 147012.07244540125, -12164.802809334136, 3723.8676814875225, -87850.24587514949, 187500.0, -2007.097245108753, -187500.02235174447, -187500.02235174447, -0.084, -0.166, 0.988, 192.0, 0.0, 0.0, 0.0, 0.0, 0.0, 0.0, 0.0, 0.0, 0.0, 1.7060885156004767E9, 0.0, 2024-01-24 16:28:35.600
69.0, 157818.78326163095, -10445.461922343007, 14931.926421156697, -96055.7724303928, 187500.0, -20183.51348442, -187500.02235174447, -187500.02235174447, -0.084, -0.166, 0.988, 192.0, 0.0, 0.0, 0.0, 0.0, 0.0, 0.0, 0.0, 0.0, 0.0, 1.7060885156044884E9, 0.0, 2024-01-24 16:28:35.604
70.0, 160024.1181283138, -8927.979639527755, 14322.528460327205, -97912.19656612833, 187500.0, -14743.143587487173, -187500.02235174447, -187500.02235174447, -0.084, -0.166, 0.988, 192.0, 0.0, 0.0, 0.0, 0.0, 0.0, 0.0, 0.0, 0.0, 0.0, 1.7060885156095874E9, 0.0, 2024-01-24 16:28:35.609
71.0, 149677.58502693, -8826.860347611946, -1297.3399516749325, -89247.98986291765, 187500.0, 22501.07646001297, -187500.02235174447, -187500.02235174447, -0.084, -0.166, 0.988, 192.0, 0.0, 0.0, 0.0, 0.0, 0.0, 0.0, 0.0, 0.0, 0.0, 1.70608851561252E9, 0.0, 2024-01-24 16:28:35.612
72.0, 137011.49964469668, -12573.593863677248, -13599.06954754228, -82233.45365923092, 187500.0, 39835.07780254815, -187500.02235174447, -187500.02235174447, -0.084, -0.166, 0.988, 192.0, 0.0, 0.0, 0.0, 0.0, 0.0, 0.0, 0.0, 0.0, 0.0, 1.7060885156165612E9, 0.0, 2024-01-24 16:28:35.616
73.0, 146933.30489794075, -12245.0902754176, 3701.627695754492, -87842.51217156794, 187500.0, -2006.3149340528173, -187500.02235174447, -187500.02235174447, -0.084, -0.166, 0.988, 192.0, 0.0, 0.0, 0.0, 0.0, 0.0, 0.0, 0.0, 0.0, 0.0, 1.7060885156205013E9, 0.0, 2024-01-24 16:28:35.620
74.0, 157729.48804253197, -10535.628859475715, 14870.034440759951, -96071.55276197825, 187500.0, -20221.064415104916, -187500.02235174447, -187500.02235174447, -0.084, -0.166, 0.988, 192.0, 0.0, 0.0, 0.0, 0.0, 0.0, 0.0, 0.0, 0.0, 0.0, 1.7060885156245072E9, 0.0, 2024-01-24 16:28:35.624
75.0, 159977.93942426913, -8972.571369716094, 14289.269064577707, -97914.45409231831, 187500.0, -14758.767456861433, -187500.02235174447, -187500.02235174447, -0.084, -0.166, 0.988, 192.0, 0.0, 0.0, 0.0, 0.0, 0.0, 0.0, 0.0, 0.0, 0.0, 1.706088515628509E9, 0.0, 2024-01-24 16:28:35.628
76.0, 149707.04462612208, -8827.016809823133, -1224.4956164950868, -89231.53897899855, 187500.0, 22482.12218071487, -187500.02235174447, -187500.02235174447, -0.092, -0.162, 0.988, 192.0, 253.0, 32.0, 250.0, 240.0, 30.0, 224.0, 0.0, 0.0, 0.0, 1.7060885156325707E9, 0.0, 2024-01-24 16:28:35.632
77.0, 137029.35868851648, -12562.999136805432, -13537.244622378901, -82159.51408857276, 187500.0, 39981.54878396378, -187500.02235174447, -187500.02235174447, -0.092, -0.162, 0.988, 192.0, 0.0, 0.0, 0.0, 0.0, 0.0, 0.0, 0.0, 0.0, 0.0, 1.7060885156376445E9, 0.0, 2024-01-24 16:28:35.637
78.0, 146945.19602599097, -12223.811414696147, 3718.0562279291426, -87757.55319089332, 187500.0, -1876.3171883007515, -187500.02235174447, -187500.02235174447, -0.092, -0.162, 0.988, 192.0, 0.0, 0.0, 0.0, 0.0, 0.0, 0.0, 0.0, 0.0, 0.0, 1.7060885156406348E9, 0.0, 2024-01-24 16:28:35.640
79.0, 157740.5298042929, -10538.713400210549, 14866.167588969183, -96034.80649409372, 187500.0, -20202.6689294182, -187500.02235174447, -187500.02235174447, -0.092, -0.162, 0.988, 192.0, 0.0, 0.0, 0.0, 0.0, 0.0, 0.0, 0.0, 0.0, 0.0, 1.7060885156435688E9, 0.0, 2024-01-24 16:28:35.643
80.0, 159920.2942753189, -9046.019201996232, 14239.58113665356, -97946.8641217785, 187500.0, -14786.818896152843, -187500.02235174447, -187500.02235174447, -0.092, -0.162, 0.988, 192.0, 0.0, 0.0, 0.0, 0.0, 0.0, 0.0, 0.0, 0.0, 0.0, 1.70608851564865E9, 0.0, 2024-01-24 16:28:35.648
81.0, 149774.65865309938, -8819.417216708329, -1135.2898043739563, -89231.5166272541, 187500.0, 22445.35356108589, -187500.02235174447, -187500.02235174447, -0.092, -0.162, 0.988, 192.0, 0.0, 0.0, 0.0, 0.0, 0.0, 0.0, 0.0, 0.0, 0.0, 1.7060885156526973E9, 0.0, 2024-01-24 16:28:35.652
82.0, 137079.82892749656, -12554.550177401326, -13491.423546245522, -82107.83685539209, 187500.0, 40143.10719288674, -187500.02235174447, -187500.02235174447, -0.092, -0.162, 0.988, 192.0, 0.0, 0.0, 0.0, 0.0, 0.0, 0.0, 0.0, 0.0, 0.0, 1.7060885156565971E9, 0.0, 2024-01-24 16:28:35.656
83.0, 146901.90069698106, -12261.697621547894, 3665.9990150927324, -87718.86232124119, 187500.0, -1738.1163523335879, -187500.02235174447, -187500.02235174447, -0.092, -0.162, 0.988, 192.0, 0.0, 0.0, 0.0, 0.0, 0.0, 0.0, 0.0, 0.0, 0.0, 1.706088515660568E9, 0.0, 2024-01-24 16:28:35.660
84.0, 157661.87401555467, -10607.91440104418, 14797.92771314713, -96049.33512798967, 187500.0, -20198.95853983862, -187500.02235174447, -187500.02235174447, -0.092, -0.162, 0.988, 192.0, 0.0, 0.0, 0.0, 0.0, 0.0, 0.0, 0.0, 0.0, 0.0, 1.7060885156657455E9, 0.0, 2024-01-24 16:28:35.665
85.0, 159819.64437003667, -9140.835301975645, 14167.832036952024, -98002.60937245004, 187500.0, -14821.464100058569, -187500.02235174447, -187500.02235174447, -0.092, -0.162, 0.988, 192.0, 0.0, 0.0, 0.0, 0.0, 0.0, 0.0, 0.0, 0.0, 0.0, 1.7060885156686478E9, 0.0, 2024-01-24 16:28:35.668
86.0, 149678.94848334175, -8935.713343109292, -1166.1575634667354, -89300.67292459881, 187500.0, 22384.690926634186, -187500.02235174447, -187500.02235174447, -0.094, -0.156, 0.984, 192.0, 253.0, 16.0, 251.0, 32.0, 30.0, 192.0, 0.0, 0.0, 0.0, 1.706088515671842E9, 0.0, 2024-01-24 16:28:35.671
87.0, 137044.848447424, -12593.039881353365, -13492.00469160136, -82082.10999752402, 187500.0, 40302.966869231095, -187500.02235174447, -187500.02235174447, -0.094, -0.156, 0.984, 192.0, 0.0, 0.0, 0.0, 0.0, 0.0, 0.0, 0.0, 0.0, 0.0, 1.706088515676676E9, 0.0, 2024-01-24 16:28:35.676
88.0, 146829.7492658793, -12299.539124910729, 3621.2955261821185, -87679.88087891114, 187500.0, -1610.8455194050694, -187500.02235174447, -187500.02235174447, -0.094, -0.156, 0.984, 192.0, 0.0, 0.0, 0.0, 0.0, 0.0, 0.0, 0.0, 0.0, 0.0, 1.7060885156807294E9, 0.0, 2024-01-24 16:28:35.680
89.0, 157657.09074224124, -10582.299301898396, 14810.802317953387, -96000.98830473285, 187500.0, -20163.218100454582, -187500.02235174447, -187500.02235174447, -0.094, -0.156, 0.984, 192.0, 0.0, 0.0, 0.0, 0.0, 0.0, 0.0, 0.0, 0.0, 0.0, 1.7060885156846528E9, 0.0, 2024-01-24 16:28:35.684
90.0, 159891.728745905, -9077.870437845044, 14225.074854502065, -97973.68621512488, 187500.0, -14788.45057349808, -187500.02235174447, -187500.02235174447, -0.094, -0.156, 0.984, 192.0, 0.0, 0.0, 0.0, 0.0, 0.0, 0.0, 0.0, 0.0, 0.0, 1.7060885156886768E9, 0.0, 2024-01-24 16:28:35.688
91.0, 149811.94136285083, -8875.408336568873, -1048.9226637986499, -89294.9732297627, 187500.0, 22383.349821966865, -187500.02235174447, -187500.02235174447, -0.094, -0.156, 0.984, 192.0, 0.0, 0.0, 0.0, 0.0, 0.0, 0.0, 0.0, 0.0, 0.0, 1.7060885156916409E9, 0.0, 2024-01-24 16:28:35.691
92.0, 137093.88817475893, -12595.342111032262, -13465.048487788259, -82061.94872402534, 187500.0, 40461.86542056387, -187500.02235174447, -187500.02235174447, -0.094, -0.156, 0.984, 192.0, 0.0, 0.0, 0.0, 0.0, 0.0, 0.0, 0.0, 0.0, 0.0, 1.706088515697642E9, 0.0, 2024-01-24 16:28:35.697
93.0, 146762.02348017975, -12350.277584824275, 3565.572627255038, -87671.83425090722, 187500.0, -1498.9079831728916, -187500.02235174447, -187500.02235174447, -0.094, -0.156, 0.984, 192.0, 0.0, 0.0, 0.0, 0.0, 0.0, 0.0, 0.0, 0.0, 0.0, 1.7060885157006528E9, 0.0, 2024-01-24 16:28:35.700
94.0, 157582.3912122716, -10629.506186188006, 14755.6829161266, -96025.03878176675, 187500.0, -20148.912984003186, -187500.02235174447, -187500.02235174447, -0.094, -0.156, 0.984, 192.0, 0.0, 0.0, 0.0, 0.0, 0.0, 0.0, 0.0, 0.0, 0.0, 1.7060885157046595E9, 0.0, 2024-01-24 16:28:35.704
95.0, 159813.6093990337, -9129.659429747991, 14170.693060242304, -98027.41980879544, 187500.0, -14795.111393345762, -187500.02235174447, -187500.02235174447, -0.094, -0.156, 0.984, 192.0, 0.0, 0.0, 0.0, 0.0, 0.0, 0.0, 0.0, 0.0, 0.0, 1.706088515708634E9, 0.0, 2024-01-24 16:28:35.708
96.0, 149840.97627889828, -8880.37042383795, -1005.6496865331753, -89328.27732900111, 187500.0, 22365.311964191435, -187500.02235174447, -187500.02235174447, -0.094, -0.158, 0.988, 192.0, 253.0, 16.0, 251.0, 16.0, 30.0, 224.0, 0.0, 0.0, 0.0, 1.7060885157126465E9, 0.0, 2024-01-24 16:28:35.712
97.0, 137133.9648525673, -12579.830000380278, -13444.104903233636, -82020.75445899421, 187500.0, 40642.8921989074, -187500.02235174447, -187500.02235174447, -0.094, -0.158, 0.988, 192.0, 0.0, 0.0, 0.0, 0.0, 0.0, 0.0, 0.0, 0.0, 0.0, 1.7060885157166903E9, 0.0, 2024-01-24 16:28:35.716
98.0, 146690.58730490057, -12372.383460090574, 3484.9498850047453, -87614.45732289045, 187500.0, -1300.78212032105, -187500.02235174447, -187500.02235174447, -0.094, -0.158, 0.988, 192.0, 0.0, 0.0, 0.0, 0.0, 0.0, 0.0, 0.0, 0.0, 0.0, 1.7060885157206905E9, 0.0, 2024-01-24 16:28:35.720
99.0, 157435.0708645667, -10709.860707504835, 14647.545176451824, -96060.28748277278, 187500.0, -20111.22794285154, -187500.02235174447, -187500.02235174447, -0.094, -0.158, 0.988, 192.0, 0.0, 0.0, 0.0, 0.0, 0.0, 0.0, 0.0, 0.0, 0.0, 1.7060885157237065E9, 0.0, 2024-01-24 16:28:35.723
100.0, 159658.71180995845, -9225.436654738982, 14081.777820799092, -98115.46333020489, 187500.0, -14824.36982683776, -187500.02235174447, -187500.02235174447, -0.094, -0.158, 0.988, 192.0, 0.0, 0.0, 0.0, 0.0, 0.0, 0.0, 0.0, 0.0, 0.0, 1.7060885157277207E9, 0.0, 2024-01-24 16:28:35.727
101.0, 149771.30589143108, -8942.888253079445, -1001.9392969535944, -89395.89135597841, 187500.0, 22302.682376227665, -187500.02235174447, -187500.02235174447, -0.094, -0.158, 0.988, 192.0, 0.0, 0.0, 0.0, 0.0, 0.0, 0.0, 0.0, 0.0, 0.0, 1.7060885157326913E9, 0.0, 2024-01-24 16:28:35.732
102.0, 137092.99410498072, -12612.26238158493, -13450.788074825774, -82023.72724100677, 187500.0, 40796.806311226646, -187500.02235174447, -187500.02235174447, -0.094, -0.158, 0.988, 192.0, 0.0, 0.0, 0.0, 0.0, 0.0, 0.0, 0.0, 0.0, 0.0, 1.706088515736691E9, 0.0, 2024-01-24 16:28:35.736
103.0, 146600.86740265696, -12411.007274509344, 3434.4572942802065, -87640.76532611434, 187500.0, -1178.13809849478, -187500.02235174447, -187500.02235174447, -0.094, -0.158, 0.988, 192.0, 0.0, 0.0, 0.0, 0.0, 0.0, 0.0, 0.0, 0.0, 0.0, 1.7060885157407308E9, 0.0, 2024-01-24 16:28:35.740
104.0, 157301.3850809795, -10759.548635428982, 14575.036117438809, -96092.54105002178, 187500.0, -20099.605035734778, -187500.02235174447, -187500.02235174447, -0.094, -0.158, 0.988, 192.0, 0.0, 0.0, 0.0, 0.0, 0.0, 0.0, 0.0, 0.0, 0.0, 1.7060885157448509E9, 0.0, 2024-01-24 16:28:35.744
105.0, 159527.70823570588, -9270.475419816425, 14018.030645612556, -98176.97533094589, 187500.0, -14838.294963633414, -187500.02235174447, -187500.02235174447, -0.094, -0.158, 0.988, 192.0, 0.0, 0.0, 0.0, 0.0, 0.0, 0.0, 0.0, 0.0, 0.0, 1.7060885157477758E9, 0.0, 2024-01-24 16:28:35.747
106.0, 149688.80560264655, -8986.004768133733, -1012.0199337029379, -89460.95728408781, 187500.0, 22288.55607373191, -187500.02235174447, -187500.02235174447, -0.094, -0.162, 0.988, 192.0, 253.0, 16.0, 250.0, 240.0, 30.0, 224.0, 0.0, 0.0, 0.0, 1.706088515751737E9, 0.0, 2024-01-24 16:28:35.751
107.0, 137031.52680772863, -12624.377027079705, -13466.90368257805, -82013.3560315795, 187500.0, 40997.502624690846, -187500.02235174447, -187500.02235174447, -0.094, -0.162, 0.988, 192.0, 0.0, 0.0, 0.0, 0.0, 0.0, 0.0, 0.0, 0.0, 0.0, 1.7060885157557268E9, 0.0, 2024-01-24 16:28:35.755
108.0, 146439.59956641193, -12455.978984353422, 3334.0085546980567, -87645.77211687234, 187500.0, -988.081215391304, -187500.02235174447, -187500.02235174447, -0.094, -0.162, 0.988, 192.0, 0.0, 0.0, 0.0, 0.0, 0.0, 0.0, 0.0, 0.0, 0.0, 1.706088515759756E9, 0.0, 2024-01-24 16:28:35.759
109.0, 157105.89672397336, -10807.314313329973, 14465.199645185428, -96136.90926276556, 187500.0, -20040.9317065396, -187500.02235174447, -187500.02235174447, -0.094, -0.162, 0.988, 192.0, 0.0, 0.0, 0.0, 0.0, 0.0, 0.0, 0.0, 0.0, 0.0, 1.7060885157647555E9, 0.0, 2024-01-24 16:28:35.764
110.0, 159336.89139329095, -9307.959295267976, 13923.862746222347, -98250.2890527593, 187500.0, -14842.340629379825, -187500.02235174447, -187500.02235174447, -0.094, -0.162, 0.988, 192.0, 0.0, 0.0, 0.0, 0.0, 0.0, 0.0, 0.0, 0.0, 0.0, 1.7060885157687724E9, 0.0, 2024-01-24 16:28:35.768
111.0, 149557.66791792726, -9010.010541678732, -1025.0286489759267, -89529.17480816541, 187500.0, 22247.339456956324, -187500.02235174447, -187500.02235174447, -0.094, -0.162, 0.988, 192.0, 0.0, 0.0, 0.0, 0.0, 0.0, 0.0, 0.0, 0.0, 0.0, 1.7060885157727864E9, 0.0, 2024-01-24 16:28:35.772
112.0, 136931.10041989095, -12616.017474653421, -13482.281682763301, -82015.0547641581, 187500.0, 41186.77719673839, -187500.02235174447, -187500.02235174447, -0.094, -0.162, 0.988, 192.0, 0.0, 0.0, 0.0, 0.0, 0.0, 0.0, 0.0, 0.0, 0.0, 1.7060885157757833E9, 0.0, 2024-01-24 16:28:35.775
113.0, 146256.60583455634, -12457.61066169866, 3230.87760578127, -87659.76430890136, 187500.0, -765.189619682982, -187500.02235174447, -187500.02235174447, -0.094, -0.162, 0.988, 192.0, 0.0, 0.0, 0.0, 0.0, 0.0, 0.0, 0.0, 0.0, 0.0, 1.706088515779843E9, 0.0, 2024-01-24 16:28:35.779
114.0, 156920.86898337235, -10796.496069013605, 14368.103667271575, -96191.51457446988, 187500.0, -19916.94658004601, -187500.02235174447, -187500.02235174447, -0.094, -0.162, 0.988, 192.0, 0.0, 0.0, 0.0, 0.0, 0.0, 0.0, 0.0, 0.0, 0.0, 1.7060885157837975E9, 0.0, 2024-01-24 16:28:35.783
115.0, 159125.063911088, -9328.411141444582, 13816.954352492614, -98356.6610046221, 187500.0, -14769.272776755426, -187500.02235174447, -187500.02235174447, -0.094, -0.162, 0.988, 192.0, 0.0, 0.0, 0.0, 0.0, 0.0, 0.0, 0.0, 0.0, 0.0, 1.706088515787784E9, 0.0, 2024-01-24 16:28:35.787
116.0, 149372.97545349307, -9035.826806524612, -1069.0615855528815, -89634.31741408318, 187500.0, 22267.947765344117, -187500.02235174447, -187500.02235174447, -0.094, -0.16, 0.988, 192.0, 253.0, 16.0, 251.0, 0.0, 30.0, 224.0, 0.0, 0.0, 0.0, 1.7060885157928195E9, 0.0, 2024-01-24 16:28:35.792
117.0, 136733.53335065048, -12626.701608503057, -13544.307773626779, -82062.93220078138, 187500.0, 41402.024495843, -187500.02235174447, -187500.02235174447, -0.094, -0.16, 0.988, 192.0, 0.0, 0.0, 0.0, 0.0, 0.0, 0.0, 0.0, 0.0, 0.0, 1.706088515796872E9, 0.0, 2024-01-24 16:28:35.796
118.0, 145913.12657751163, -12523.615363075181, 3044.5534640018304, -87755.42977517007, 187500.0, -566.102631819562, -187500.02235174447, -187500.02235174447, -0.094, -0.16, 0.988, 192.0, 0.0, 0.0, 0.0, 0.0, 0.0, 0.0, 0.0, 0.0, 0.0, 1.7060885158008385E9, 0.0, 2024-01-24 16:28:35.800
119.0, 156491.62608285263, -10892.653273660335, 14138.059513337555, -96354.74936422698, 187500.0, -19865.939899199, -187500.02235174447, -187500.02235174447, -0.094, -0.16, 0.988, 192.0, 0.0, 0.0, 0.0, 0.0, 0.0, 0.0, 0.0, 0.0, 0.0, 1.7060885158038988E9, 0.0, 2024-01-24 16:28:35.803
120.0, 158659.0076874504, -9442.717962589022, 13583.333919445744, -98574.90343748372, 187500.0, -14789.16582932065, -187500.02235174447, -187500.02235174447, -0.094, -0.16, 0.988, 192.0, 0.0, 0.0, 0.0, 0.0, 0.0, 0.0, 0.0, 0.0, 0.0, 1.7060885158078609E9, 0.0, 2024-01-24 16:28:35.807
121.0, 149022.164824267, -9072.327205220128, -1172.9524937811486, -89805.93410801103, 187500.0, 22273.625108435765, -187500.02235174447, -187500.02235174447, -0.094, -0.16, 0.988, 192.0, 0.0, 0.0, 0.0, 0.0, 0.0, 0.0, 0.0, 0.0, 0.0, 1.706088515811832E9, 0.0, 2024-01-24 16:28:35.811
122.0, 136466.87703929868, -12574.10795379972, -13603.718710388985, -82129.16041960246, 187500.0, 41681.17543234533, -187500.02235174447, -187500.02235174447, -0.094, -0.16, 0.988, 192.0, 0.0, 0.0, 0.0, 0.0, 0.0, 0.0, 0.0, 0.0, 0.0, 1.7060885158158731E9, 0.0, 2024-01-24 16:28:35.815
123.0, 145534.9574130723, -12503.94582795451, 2883.218572523424, -87836.52190405392, 187500.0, -303.38022749188275, -187500.02235174447, -187500.02235174447, -0.094, -0.16, 0.988, 192.0, 0.0, 0.0, 0.0, 0.0, 0.0, 0.0, 0.0, 0.0, 0.0, 1.706088515820862E9, 0.0, 2024-01-24 16:28:35.820
124.0, 156052.2354903502, -10899.694073163757, 13947.957926745168, -96493.17371763871, 187500.0, -19772.19668295344, -187500.02235174447, -187500.02235174447, -0.094, -0.16, 0.988, 192.0, 0.0, 0.0, 0.0, 0.0, 0.0, 0.0, 0.0, 0.0, 0.0, 1.7060885158248494E9, 0.0, 2024-01-24 16:28:35.824
125.0, 158152.58421332648, -9494.886934147708, 13361.850483638107, -98783.57932371847, 187500.0, -14775.30774775836, -187500.02235174447, -187500.02235174447, -0.096, -0.166, 0.99, 192.0, 253.0, 0.0, 250.0, 208.0, 30.0, 240.0, 0.0, 0.0, 0.0, 1.7060885158288877E9, 0.0, 2024-01-24 16:28:35.828
126.0, 148567.35152809042, -9083.614836170058, -1311.868585570882, -90004.23878481852, 187500.0, 22284.868035896783, -187500.02235174447, -187500.02235174447, -0.096, -0.166, 0.99, 192.0, 0.0, 0.0, 0.0, 0.0, 0.0, 0.0, 0.0, 0.0, 0.0, 1.706088515832898E9, 0.0, 2024-01-24 16:28:35.832
127.0, 136081.80118582264, -12491.585313270727, -13701.529944125408, -82236.24762728783, 187500.0, 41929.9950516218, -187500.02235174447, -187500.02235174447, -0.096, -0.166, 0.99, 192.0, 0.0, 0.0, 0.0, 0.0, 0.0, 0.0, 0.0, 0.0, 0.0, 1.7060885158358872E9, 0.0, 2024-01-24 16:28:35.835
128.0, 145034.39009599568, -12468.406554270572, 2672.799250221163, -87979.23779240105, 187500.0, -54.225332048574934, -187500.02235174447, -187500.02235174447, -0.096, -0.166, 0.99, 192.0, 0.0, 0.0, 0.0, 0.0, 0.0, 0.0, 0.0, 0.0, 0.0, 1.7060885158398745E9, 0.0, 2024-01-24 16:28:35.839
129.0, 155392.21082832944, -10978.305158413072, 13639.570908495298, -96743.91558693834, 187500.0, -19703.688586197924, -187500.02235174447, -187500.02235174447, -0.096, -0.166, 0.99, 192.0, 0.0, 0.0, 0.0, 0.0, 0.0, 0.0, 0.0, 0.0, 0.0, 1.7060885158438814E9, 0.0, 2024-01-24 16:28:35.843
130.0, 157460.99888813484, -9576.627263620767, 13073.311814464549, -99074.68844350439, 187500.0, -14802.554524249379, -187500.02235174447, -187500.02235174447, -0.096, -0.166, 0.99, 192.0, 0.0, 0.0, 0.0, 0.0, 0.0, 0.0, 0.0, 0.0, 0.0, 1.7060885158489134E9, 0.0, 2024-01-24 16:28:35.848
131.0, 148025.20996632695, -9036.966745491833, -1441.8886830674032, -90227.55506367149, 187500.0, 22269.333573500346, -187500.02235174447, -187500.02235174447, -0.096, -0.166, 0.99, 192.0, 0.0, 0.0, 0.0, 0.0, 0.0, 0.0, 0.0, 0.0, 0.0, 1.7060885158529036E9, 0.0, 2024-01-24 16:28:35.852
132.0, 135576.98703729952, -12372.428163579485, -13812.416948368187, -82353.0354920668, 187500.0, 42155.92648457605, -187500.02235174447, -187500.02235174447, -0.096, -0.166, 0.99, 192.0, 0.0, 0.0, 0.0, 0.0, 0.0, 0.0, 0.0, 0.0, 0.0, 1.7060885158569076E9, 0.0, 2024-01-24 16:28:35.856
133.0, 144446.47216158774, -12366.482599554372, 2491.191326521793, -88104.87694798433, 187500.0, 164.08415604640913, -187500.02235174447, -187500.02235174447, -0.096, -0.166, 0.99, 192.0, 0.0, 0.0, 0.0, 0.0, 0.0, 0.0, 0.0, 0.0, 0.0, 1.706088515859945E9, 0.0, 2024-01-24 16:28:35.859
134.0, 154756.3260503204, -10918.849518161955, 13430.626801327087, -96934.128932253, 187500.0, -19623.31171313664, -187500.02235174447, -187500.02235174447, -0.096, -0.166, 0.99, 192.0, 0.0, 0.0, 0.0, 0.0, 0.0, 0.0, 0.0, 0.0, 0.0, 1.7060885158639202E9, 0.0, 2024-01-24 16:28:35.863
135.0, 156780.58943517084, -9563.886769281242, 12850.30846003395, -99321.25053659089, 187500.0, -14818.491318046013, -187500.02235174447, -187500.02235174447, -0.096, -0.164, 0.988, 192.0, 253.0, 0.0, 250.0, 224.0, 30.0, 224.0, 0.0, 0.0, 0.0, 1.7060885158679442E9, 0.0, 2024-01-24 16:28:35.867
136.0, 147333.6693446242, -9037.994925736777, -1628.7492667137703, -90466.58461887654, 187500.0, 22199.48437207751, -187500.02235174447, -187500.02235174447, -0.096, -0.164, 0.988, 192.0, 0.0, 0.0, 0.0, 0.0, 0.0, 0.0, 0.0, 0.0, 0.0, 1.706088515871952E9, 0.0, 2024-01-24 16:28:35.871
137.0, 134959.4977449772, -12272.024127486246, -13943.71109529866, -82484.91078435312, 187500.0, 42282.370302959716, -187500.02235174447, -187500.02235174447, -0.096, -0.164, 0.988, 192.0, 0.0, 0.0, 0.0, 0.0, 0.0, 0.0, 0.0, 0.0, 0.0, 1.70608851587597E9, 0.0, 2024-01-24 16:28:35.875
138.0, 143836.4036484246, -12244.553833550674, 2344.899159061809, -88217.06035340553, 187500.0, 319.2946695440614, -187500.02235174447, -187500.02235174447, -0.096, -0.164, 0.988, 192.0, 0.0, 0.0, 0.0, 0.0, 0.0, 0.0, 0.0, 0.0, 0.0, 1.7060885158809276E9, 0.0, 2024-01-24 16:28:35.880
139.0, 154115.121557131, -10844.082932958954, 13268.040212159183, -97091.30639926271, 187500.0, -19590.87933193199, -187500.02235174447, -187500.02235174447, -0.096, -0.164, 0.988, 192.0, 0.0, 0.0, 0.0, 0.0, 0.0, 0.0, 0.0, 0.0, 0.0, 1.706088515884932E9, 0.0, 2024-01-24 16:28:35.884
140.0, 156063.05373466655, -9567.887731538742, 12652.473169860026, -99543.94096659911, 187500.0, -14898.398804473736, -187500.02235174447, -187500.02235174447, -0.096, -0.164, 0.988, 192.0, 0.0, 0.0, 0.0, 0.0, 0.0, 0.0, 0.0, 0.0, 0.0, 1.706088515887931E9, 0.0, 2024-01-24 16:28:35.887
141.0, 146674.9187320374, -8999.460518295828, -1754.4107740415066, -90672.73475798784, 187500.0, 22086.60806257821, -187500.02235174447, -187500.02235174447, -0.096, -0.164, 0.988, 192.0, 0.0, 0.0, 0.0, 0.0, 0.0, 0.0, 0.0, 0.0, 0.0, 1.706088515892088E9, 0.0, 2024-01-24 16:28:35.892
142.0, 134372.47388034748, -12133.68918105235, -14037.946049922235, -82576.82115755334, 187248.56522662228, 42397.14651073772, -187500.02235174447, -187500.02235174447, -0.096, -0.164, 0.988, 192.0, 0.0, 0.0, 0.0, 0.0, 0.0, 0.0, 0.0, 0.0, 0.0, 1.7060885158959622E9, 0.0, 2024-01-24 16:28:35.895
143.0, 143244.68591745925, -12097.457003290298, 2237.409619976237, -88273.1408802439, 187500.0, 447.68308969534513, -187500.02235174447, -187500.02235174447, -0.096, -0.164, 0.988, 192.0, 0.0, 0.0, 0.0, 0.0, 0.0, 0.0, 0.0, 0.0, 0.0, 1.7060885159000528E9, 0.0, 2024-01-24 16:28:35.900
144.0, 153532.29982045887, -10729.88787053679, 13188.400946664924, -97185.54135388629, 187500.0, -19612.35935835354, -187500.02235174447, -187500.02235174447, -0.096, -0.164, 0.988, 192.0, 0.0, 0.0, 0.0, 0.0, 0.0, 0.0, 0.0, 0.0, 0.0, 1.706088515904009E9, 0.0, 2024-01-24 16:28:35.904
145.0, 155531.57395500827, -9455.39140169518, 12611.54712576236, -99668.48488670409, 187500.0, -14981.949625247673, -187500.02235174447, -187500.02235174447, -0.094, -0.166, 0.986, 192.0, 253.0, 16.0, 250.0, 208.0, 30.0, 208.0, 0.0, 0.0, 0.0, 1.706088515908971E9, 0.0, 2024-01-24 16:28:35.908
146.0, 146188.88004885675, -8886.76302275217, -1767.1289166365764, -90789.83554718918, 187500.0, 21991.188465498504, -187500.02235174447, -187500.02235174447, -0.094, -0.166, 0.986, 192.0, 0.0, 0.0, 0.0, 0.0, 0.0, 0.0, 0.0, 0.0, 0.0, 1.706088515913026E9, 0.0, 2024-01-24 16:28:35.913
147.0, 133958.74309047975, -11938.178472301779, -14034.63799174285, -82591.26038447146, 186339.0280412469, 42524.17147447723, -187500.02235174447, -187500.02235174447, -0.094, -0.166, 0.986, 192.0, 0.0, 0.0, 0.0, 0.0, 0.0, 0.0, 0.0, 0.0, 0.0, 1.7060885159160073E9, 0.0, 2024-01-24 16:28:35.916
148.0, 142918.46220713406, -11832.968811150648, 2284.1694693767395, -88228.5715018, 186934.09853388055, 626.6088040600782, -187500.02235174447, -187500.02235174447, -0.094, -0.166, 0.986, 192.0, 0.0, 0.0, 0.0, 0.0, 0.0, 0.0, 0.0, 0.0, 0.0, 1.7060885159200616E9, 0.0, 2024-01-24 16:28:35.920
149.0, 153155.62822289806, -10549.41988580464, 13197.90043805843, -97193.47622316793, 187500.0, -19563.431389740872, -187500.02235174447, -187500.02235174447, -0.094, -0.166, 0.986, 192.0, 0.0, 0.0, 0.0, 0.0, 0.0, 0.0, 0.0, 0.0, 0.0, 1.7060885159240608E9, 0.0, 2024-01-24 16:28:35.924
150.0, 155089.7470223602, -9354.406220246103, 12588.748346417946, -99733.8413874914, 187500.0, -15046.21089055668, -187500.02235174447, -187500.02235174447, -0.094, -0.166, 0.986, 192.0, 0.0, 0.0, 0.0, 0.0, 0.0, 0.0, 0.0, 0.0, 0.0, 1.70608851592801E9, 0.0, 2024-01-24 16:28:35.928
151.0, 145817.55051822073, -8756.854683977925, -1732.9083958755014, -90840.37284140264, 187500.0, 21908.598769736145, -187500.02235174447, -187500.02235174447, -0.094, -0.166, 0.986, 192.0, 0.0, 0.0, 0.0, 0.0, 0.0, 0.0, 0.0, 0.0, 0.0, 1.7060885159320092E9, 0.0, 2024-01-24 16:28:35.932
152.0, 133610.52526361053, -11769.936891786683, -14024.266782315586, -82563.85714576926, 185532.8453222329, 42649.117725982396, -187500.02235174447, -187500.02235174447, -0.094, -0.166, 0.986, 192.0, 0.0, 0.0, 0.0, 0.0, 0.0, 0.0, 0.0, 0.0, 0.0, 1.7060885159370153E9, 0.0, 2024-01-24 16:28:35.937
153.0, 142667.80974481223, -11579.880008683207, 2358.176095268261, -88132.4590006422, 186244.6142726677, 802.3382189677023, -187500.02235174447, -187500.02235174447, -0.094, -0.166, 0.986, 192.0, 0.0, 0.0, 0.0, 0.0, 0.0, 0.0, 0.0, 0.0, 0.0, 1.706088515940009E9, 0.0, 2024-01-24 16:28:35.940
154.0, 152978.13302017844, -10280.215475584922, 13324.50071865329, -97096.73787316536, 187500.0, -19455.9418506553, -187500.02235174447, -187500.02235174447, -0.094, -0.166, 0.986, 192.0, 0.0, 0.0, 0.0, 0.0, 0.0, 0.0, 0.0, 0.0, 0.0, 1.7060885159430592E9, 0.0, 2024-01-24 16:28:35.943
155.0, 154894.7057002432, -9143.405752588005, 12696.506106436982, -99678.16319205322, 187500.0, -15012.370349451347, -187500.02235174447, -187500.02235174447, -0.096, -0.16, 0.986, 192.0, 253.0, 0.0, 251.0, 0.0, 30.0, 208.0, 0.0, 0.0, 0.0, 1.7060885159480445E9, 0.0, 2024-01-24 16:28:35.948
156.0, 145629.5276438627, -8588.79191741847, -1617.79691193067, -90819.67512603702, 187500.0, 21847.623210862068, -187500.02235174447, -187500.02235174447, -0.096, -0.16, 0.986, 192.0, 0.0, 0.0, 0.0, 0.0, 0.0, 0.0, 0.0, 0.0, 0.0, 1.7060885159521492E9, 0.0, 2024-01-24 16:28:35.952
157.0, 133422.10005785228, -11575.141438858682, -13954.931671015225, -82477.98174357197, 184973.0682340942, 42806.02697205865, -187500.02235174447, -187500.02235174447, -0.096, -0.16, 0.986, 192.0, 0.0, 0.0, 0.0, 0.0, 0.0, 0.0, 0.0, 0.0, 0.0, 1.706088515956064E9, 0.0, 2024-01-24 16:28:35.956
158.0, 142550.46308642186, -11320.666828235011, 2459.273035439615, -87993.36409489681, 185789.73392125775, 1038.1938264601024, -187500.02235174447, -187500.02235174447, -0.096, -0.16, 0.986, 192.0, 0.0, 0.0, 0.0, 0.0, 0.0, 0.0, 0.0, 0.0, 0.0, 1.706088515960068E9, 0.0, 2024-01-24 16:28:35.960
159.0, 152894.00105404868, -10028.713646973807, 13458.700592362953, -96974.54088622819, 187500.0, -19310.0073111066, -187500.02235174447, -187500.02235174447, -0.096, -0.16, 0.986, 192.0, 0.0, 0.0, 0.0, 0.0, 0.0, 0.0, 0.0, 0.0, 0.0, 1.7060885159640725E9, 0.0, 2024-01-24 16:28:35.964
160.0, 154803.01884448755, -8927.24203196073, 12822.502889931548, -99592.37719683375, 187500.0, -14916.548420971445, -187500.02235174447, -187500.02235174447, -0.096, -0.16, 0.986, 192.0, 0.0, 0.0, 0.0, 0.0, 0.0, 0.0, 0.0, 0.0, 0.0, 1.706088515969108E9, 0.0, 2024-01-24 16:28:35.969
161.0, 145586.2099631083, -8377.925560227104, -1461.1111832989675, -90755.90559910603, 187500.0, 21891.678499183476, -187500.02235174447, -187500.02235174447, -0.096, -0.16, 0.986, 192.0, 0.0, 0.0, 0.0, 0.0, 0.0, 0.0, 0.0, 0.0, 0.0, 1.7060885159720607E9, 0.0, 2024-01-24 16:28:35.972
162.0, 133375.1837462406, -11356.563729830234, -13854.013544799513, -82366.80416665127, 184622.34701184597, 43053.72900411236, -187500.02235174447, -187500.02235174447, -0.096, -0.16, 0.986, 192.0, 0.0, 0.0, 0.0, 0.0, 0.0, 0.0, 0.0, 0.0, 0.0, 1.706088515976152E9, 0.0, 2024-01-24 16:28:35.976
163.0, 142508.0394754457, -11092.008482457219, 2558.626539543455, -87828.89995919466, 185460.20215275313, 1320.8539868419155, -187500.02235174447, -187500.02235174447, -0.096, -0.16, 0.986, 192.0, 0.0, 0.0, 0.0, 0.0, 0.0, 0.0, 0.0, 0.0, 0.0, 1.7060885159801192E9, 0.0, 2024-01-24 16:28:35.980
164.0, 152893.91164707084, -9799.116527928893, 13614.201678538524, -96820.09033204202, 187500.0, -19132.869736298293, -187500.02235174447, -187500.02235174447, -0.096, -0.16, 0.986, 192.0, 0.0, 0.0, 0.0, 0.0, 0.0, 0.0, 0.0, 0.0, 0.0, 1.7060885159842353E9, 0.0, 2024-01-24 16:28:35.984
165.0, 154891.84467695293, -8668.699403846193, 13035.894994246364, -99433.07631410079, 187500.0, -14762.142570274184, -187500.02235174447, -187500.02235174447, -0.098, -0.16, 0.988, 192.0, 252.0, 240.0, 251.0, 0.0, 30.0, 224.0, 0.0, 0.0, 0.0, 1.7060885159881325E9, 0.0, 2024-01-24 16:28:35.988
166.0, 145704.18247034342, -8147.590833615164, -1243.6287097488296, -90619.82817886212, 187500.0, 21986.606357885168, -187500.02235174447, -187500.02235174447, -0.098, -0.16, 0.988, 192.0, 0.0, 0.0, 0.0, 0.0, 0.0, 0.0, 0.0, 0.0, 0.0, 1.7060885159931197E9, 0.0, 2024-01-24 16:28:35.993
167.0, 133455.51591581298, -11135.169701000417, -13718.025531533425, -82187.38671390852, 184483.16269912277, 43327.69433590106, -187500.02235174447, -187500.02235174447, -0.098, -0.16, 0.988, 192.0, 0.0, 0.0, 0.0, 0.0, 0.0, 0.0, 0.0, 0.0, 0.0, 1.7060885159961886E9, 0.0, 2024-01-24 16:28:35.996
168.0, 142620.3122878447, -10837.19859566672, 2714.127625719026, -87635.40090744507, 185386.7990239619, 1620.568528243128, -187500.02235174447, -187500.02235174447, -0.098, -0.16, 0.988, 192.0, 0.0, 0.0, 0.0, 0.0, 0.0, 0.0, 0.0, 0.0, 0.0, 1.706088516001132E9, 0.0, 2024-01-24 16:28:36.001
169.0, 153048.78688440166, -9528.906289208686, 13817.759015293004, -96625.63015528086, 187500.0, -18902.244437008434, -187500.02235174447, -187500.02235174447, -0.098, -0.16, 0.988, 192.0, 0.0, 0.0, 0.0, 0.0, 0.0, 0.0, 0.0, 0.0, 0.0, 1.706088516004113E9, 0.0, 2024-01-24 16:28:36.004
170.0, 155045.0435334496, -8417.532851401907, 13234.199671053848, -99263.33716670719, 187500.0, -14564.26257661135, -187500.02235174447, -187500.02235174447, -0.098, -0.16, 0.988, 192.0, 0.0, 0.0, 0.0, 0.0, 0.0, 0.0, 0.0, 0.0, 0.0, 1.7060885160081277E9, 0.0, 2024-01-24 16:28:36.008
171.0, 145891.55714411224, -7912.338723223058, -1020.8712245072395, -90480.30858997209, 187500.0, 22083.925853243574, -187500.02235174447, -187500.02235174447, -0.098, -0.16, 0.988, 192.0, 0.0, 0.0, 0.0, 0.0, 0.0, 0.0, 0.0, 0.0, 0.0, 1.706088516012344E9, 0.0, 2024-01-24 16:28:36.012
172.0, 133590.8333767454, -10933.333448568994, -13589.905332315604, -82030.56687481009, 184473.8867251738, 43596.69758042069, -187500.02235174447, -187500.02235174447, -0.098, -0.16, 0.988, 192.0, 0.0, 0.0, 0.0, 0.0, 0.0, 0.0, 0.0, 0.0, 0.0, 1.7060885160162597E9, 0.0, 2024-01-24 16:28:36.016
173.0, 142726.97481238542, -10642.693715416637, 2818.4655688363996, -87466.86875425205, 185357.47353523655, 1925.9157092470778, -187500.02235174447, -187500.02235174447, -0.098, -0.16, 0.988, 192.0, 0.0, 0.0, 0.0, 0.0, 0.0, 0.0, 0.0, 0.0, 0.0, 1.7060885160211864E9, 0.0, 2024-01-24 16:28:36.021
174.0, 153178.24818828682, -9331.540385668324, 13963.581796119428, -96470.77726969449, 187500.0, -18691.579245517165, -187500.02235174447, -187500.02235174447, -0.096, -0.164, 0.988, 192.0, 253.0, 0.0, 250.0, 224.0, 30.0, 224.0, 0.0, 0.0, 0.0, 1.7060885160241632E9, 0.0, 2024-01-24 16:28:36.024
175.0, 155183.87021826152, -8231.231061366923, 13387.55498976171, -99124.10815049507, 187500.0, -14387.37087099205, -187500.02235174447, -187500.02235174447, -0.096, -0.164, 0.988, 192.0, 0.0, 0.0, 0.0, 0.0, 0.0, 0.0, 0.0, 0.0, 0.0, 1.706088516027206E9, 0.0, 2024-01-24 16:28:36.027
176.0, 146077.16603006911, -7732.876566991397, -829.6296989476323, -90360.34677748046, 187500.0, 22157.463092501534, -187500.02235174447, -187500.02235174447, -0.096, -0.164, 0.988, 192.0, 0.0, 0.0, 0.0, 0.0, 0.0, 0.0, 0.0, 0.0, 0.0, 1.706088516032159E9, 0.0, 2024-01-24 16:28:36.032
177.0, 133785.8746988624, -10728.636172847293, -13439.813368298217, -81846.29909352055, 184540.0031852726, 43867.93599938584, -187500.02235174447, -187500.02235174447, -0.096, -0.164, 0.988, 192.0, 0.0, 0.0, 0.0, 0.0, 0.0, 0.0, 0.0, 0.0, 0.0, 1.7060885160361607E9, 0.0, 2024-01-24 16:28:36.036
178.0, 143002.52711803044, -10350.2434909634, 3015.8761758656715, -87210.04721046057, 185567.37876741635, 2306.141234176306, -187500.02235174447, -187500.02235174447, -0.096, -0.164, 0.988, 192.0, 0.0, 0.0, 0.0, 0.0, 0.0, 0.0, 0.0, 0.0, 0.0, 1.7060885160401926E9, 0.0, 2024-01-24 16:28:36.040
179.0, 153442.57991821528, -9080.664405901958, 14173.889359699413, -96258.86038051372, 187500.0, -18419.491460262714, -187500.02235174447, -187500.02235174447, -0.096, -0.164, 0.988, 192.0, 0.0, 0.0, 0.0, 0.0, 0.0, 0.0, 0.0, 0.0, 0.0, 1.7060885160442336E9, 0.0, 2024-01-24 16:28:36.044
180.0, 155492.3466434892, -7963.1442383699705, 13627.657428700619, -98922.38365678593, 187500.0, -14138.394789504384, -187500.02235174447, -187500.02235174447, -0.096, -0.164, 0.988, 192.0, 0.0, 0.0, 0.0, 0.0, 0.0, 0.0, 0.0, 0.0, 0.0, 1.7060885160481875E9, 0.0, 2024-01-24 16:28:36.048
181.0, 146373.1031266574, -7534.8177593729215, -611.163748641461, -90221.40833394628, 187500.0, 22291.97589063357, -187500.02235174447, -187500.02235174447, -0.096, -0.164, 0.988, 192.0, 0.0, 0.0, 0.0, 0.0, 0.0, 0.0, 0.0, 0.0, 0.0, 1.7060885160521896E9, 0.0, 2024-01-24 16:28:36.052
182.0, 133992.53892809618, -10591.418813636163, -13334.87192808055, -81700.69983013866, 184679.92510556284, 44143.08597363067, -187500.02235174447, -187500.02235174447, -0.096, -0.164, 0.988, 192.0, 0.0, 0.0, 0.0, 0.0, 0.0, 0.0, 0.0, 0.0, 0.0, 1.706088516055202E9, 0.0, 2024-01-24 16:28:36.055
183.0, 143145.2877098665, -10224.179652235467, 3081.9926359644696, -87042.36442355686, 185653.0083004246, 2622.843101363552, -187500.02235174447, -187500.02235174447, -0.096, -0.164, 0.988, 192.0, 0.0, 0.0, 0.0, 0.0, 0.0, 0.0, 0.0, 0.0, 0.0, 1.7060885160602183E9, 0.0, 2024-01-24 16:28:36.060
184.0, 153641.17516770068, -8915.19444169932, 14319.64508529247, -96094.19507911148, 187500.0, -18217.208172942184, -187500.02235174447, -187500.02235174447, -0.098, -0.168, 0.988, 192.0, 252.0, 240.0, 250.0, 192.0, 30.0, 224.0, 0.0, 0.0, 0.0, 1.7060885160642197E9, 0.0, 2024-01-24 16:28:36.064
185.0, 155706.2081344376, -7807.106710327472, 13784.29845384341, -98778.88545738286, 187500.0, -13969.326194444442, -187500.02235174447, -187500.02235174447, -0.098, -0.168, 0.988, 192.0, 0.0, 0.0, 0.0, 0.0, 0.0, 0.0, 0.0, 0.0, 0.0, 1.7060885160682156E9, 0.0, 2024-01-24 16:28:36.068
186.0, 146680.48431640677, -7350.281757149906, -389.5909058560021, -90090.42711143817, 187500.0, 22375.303193962955, -187500.02235174447, -187500.02235174447, -0.098, -0.168, 0.988, 192.0, 0.0, 0.0, 0.0, 0.0, 0.0, 0.0, 0.0, 0.0, 0.0, 1.706088516072261E9, 0.0, 2024-01-24 16:28:36.072
187.0, 134259.46346038146, -10434.151939648622, -13207.869316085496, -81543.90234278468, 184916.31715492217, 44417.677154264115, -187500.02235174447, -187500.02235174447, -0.098, -0.168, 0.988, 192.0, 0.0, 0.0, 0.0, 0.0, 0.0, 0.0, 0.0, 0.0, 0.0, 1.7060885160762613E9, 0.0, 2024-01-24 16:28:36.076
188.0, 143339.41261046083, -10094.42777567241, 3160.916645636159, -86868.60196216131, 185827.93305253185, 2927.0503434002812, -187500.02235174447, -187500.02235174447, -0.098, -0.168, 0.988, 192.0, 0.0, 0.0, 0.0, 0.0, 0.0, 0.0, 0.0, 0.0, 0.0, 1.7060885160802789E9, 0.0, 2024-01-24 16:28:36.080
189.0, 153866.570158788, -8770.958634729222, 14462.539787595248, -95931.65319343247, 187500.0, -18046.642011003736, -187500.02235174447, -187500.02235174447, -0.098, -0.168, 0.988, 192.0, 0.0, 0.0, 0.0, 0.0, 0.0, 0.0, 0.0, 0.0, 0.0, 1.7060885160832536E9, 0.0, 2024-01-24 16:28:36.083
190.0, 156029.23554530568, -7604.488146840114, 13991.655587155294, -98609.50393790055, 187500.0, -13795.988416193535, -187500.02235174447, -187500.02235174447, -0.098, -0.168, 0.988, 192.0, 0.0, 0.0, 0.0, 0.0, 0.0, 0.0, 0.0, 0.0, 0.0, 1.7060885160872967E9, 0.0, 2024-01-24 16:28:36.087
191.0, 147023.02480018436, -7188.455127293483, -190.90624939277762, -89982.8928688637, 187500.0, 22457.267040880568, -187500.02235174447, -187500.02235174447, -0.098, -0.168, 0.988, 192.0, 0.0, 0.0, 0.0, 0.0, 0.0, 0.0, 0.0, 0.0, 0.0, 1.7060885160922976E9, 0.0, 2024-01-24 16:28:36.092
192.0, 134528.86903630127, -10314.167775412534, -13118.417634775358, -81436.3233967213, 185174.68096908106, 44659.74654671509, -187500.02235174447, -187500.02235174447, -0.098, -0.168, 0.988, 192.0, 0.0, 0.0, 0.0, 0.0, 0.0, 0.0, 0.0, 0.0, 0.0, 1.7060885160962985E9, 0.0, 2024-01-24 16:28:36.096
193.0, 143543.886368738, -9978.355166716, 3234.4091814052085, -86714.48668414196, 186041.66043301352, 3191.136204139734, -187500.02235174447, -187500.02235174447, -0.098, -0.168, 0.988, 192.0, 0.0, 0.0, 0.0, 0.0, 0.0, 0.0, 0.0, 0.0, 0.0, 1.7060885161003199E9, 0.0, 2024-01-24 16:28:36.100
194.0, 154150.39260988147, -8590.535353485984, 14652.820188143276, -95727.96174621127, 187500.0, -17898.91933189861, -187500.02235174447, -187500.02235174447, -0.096, -0.17200000000000001, 0.984, 192.0, 253.0, 0.0, 250.0, 160.0, 30.0, 192.0, 0.0, 0.0, 0.0, 1.706088516104293E9, 0.0, 2024-01-24 16:28:36.104
195.0, 156346.89853750452, -7416.957010860087, 14196.24110415472, -98407.06418836882, 187500.0, -13640.979068395982, -187500.02235174447, -187500.02235174447, -0.096, -0.17200000000000001, 0.984, 192.0, 0.0, 0.0, 0.0, 0.0, 0.0, 0.0, 0.0, 0.0, 0.0, 1.7060885161082983E9, 0.0, 2024-01-24 16:28:36.108
196.0, 147393.72848197562, -7014.804424620203, 18.216671731075255, -89845.22847476345, 187500.0, 22577.809998728037, -187500.02235174447, -187500.02235174447, -0.096, -0.17200000000000001, 0.984, 192.0, 0.0, 0.0, 0.0, 0.0, 0.0, 0.0, 0.0, 0.0, 0.0, 1.7060885161112983E9, 0.0, 2024-01-24 16:28:36.111
197.0, 134831.0199178481, -10199.548029845719, -13032.81045351153, -81337.37222401766, 185522.45176106118, 44947.48055308826, -187500.02235174447, -187500.02235174447, -0.096, -0.17200000000000001, 0.984, 192.0, 0.0, 0.0, 0.0, 0.0, 0.0, 0.0, 0.0, 0.0, 0.0, 1.7060885161152968E9, 0.0, 2024-01-24 16:28:36.115
198.0, 143724.37670521458, -9914.339770596001, 3253.5646264034067, -86608.00297355688, 186260.39460425315, 3473.25992265462, -187500.02235174447, -187500.02235174447, -0.096, -0.17200000000000001, 0.984, 192.0, 0.0, 0.0, 0.0, 0.0, 0.0, 0.0, 0.0, 0.0, 0.0, 1.7060885161203446E9, 0.0, 2024-01-24 16:28:36.120
199.0, 154388.25987437487, -8472.473439273053, 14770.792695378388, -95596.86876498089, 187500.0, -17747.262745769352, -187500.02235174447, -187500.02235174447, -0.096, -0.17200000000000001, 0.984, 192.0, 0.0, 0.0, 0.0, 0.0, 0.0, 0.0, 0.0, 0.0, 0.0, 1.7060885161243937E9, 0.0, 2024-01-24 16:28:36.124
200.0, 156647.14952077265, -7273.950549835033, 14359.721763100835, -98289.06932938925, 187500.0, -13519.139709370103, -187500.02235174447, -187500.02235174447, -0.096, -0.17200000000000001, 0.984, 192.0, 0.0, 0.0, 0.0, 0.0, 0.0, 0.0, 0.0, 0.0, 0.0, 1.7060885161283383E9, 0.0, 2024-01-24 16:28:36.128
201.0, 147750.35056476004, -6872.803792095637, 215.47081654916008, -89742.34339503568, 187500.0, 22621.66412134935, -187500.02235174447, -187500.02235174447, -0.096, -0.17200000000000001, 0.984, 192.0, 0.0, 0.0, 0.0, 0.0, 0.0, 0.0, 0.0, 0.0, 0.0, 1.7060885161323345E9, 0.0, 2024-01-24 16:28:36.132
202.0, 135152.3038926487, -10063.560016579631, -12899.661111791267, -81179.94888781893, 185932.51686483825, 45156.692881189934, -187500.02235174447, -187500.02235174447, -0.096, -0.17200000000000001, 0.984, 192.0, 0.0, 0.0, 0.0, 0.0, 0.0, 0.0, 0.0, 0.0, 0.0, 1.706088516137344E9, 0.0, 2024-01-24 16:28:36.137
203.0, 144038.73163923403, -9752.759009928586, 3379.8519825758917, -86393.40387504148, 186706.80364451453, 3769.8005163431785, -187500.02235174447, -187500.02235174447, -0.096, -0.17200000000000001, 0.984, 192.0, 0.0, 0.0, 0.0, 0.0, 0.0, 0.0, 0.0, 0.0, 0.0, 1.706088516140343E9, 0.0, 2024-01-24 16:28:36.140
204.0, 154705.20761075112, -8329.93636488156, 14920.52703148449, -95418.45714073862, 187500.0, -17559.172816177943, -187500.02235174447, -187500.02235174447, -0.096, -0.17200000000000001, 0.982, 192.0, 253.0, 0.0, 250.0, 160.0, 30.0, 176.0, 0.0, 0.0, 0.0, 1.7060885161433501E9, 0.0, 2024-01-24 16:28:36.143
205.0, 156985.17495217026, -7130.809978343246, 14517.525078955303, -98137.77037117128, 187500.0, -13362.4539807384, -187500.02235174447, -187500.02235174447, -0.096, -0.17200000000000001, 0.982, 192.0, 0.0, 0.0, 0.0, 0.0, 0.0, 0.0, 0.0, 0.0, 0.0, 1.7060885161483796E9, 0.0, 2024-01-24 16:28:36.148
206.0, 148078.1612489416, -6777.697119438305, 367.1050509339632, -89640.55355078621, 187500.0, 22665.004153848193, -187500.02235174447, -187500.02235174447, -0.096, -0.17200000000000001, 0.982, 192.0, 0.0, 0.0, 0.0, 0.0, 0.0, 0.0, 0.0, 0.0, 0.0, 1.7060885161523983E9, 0.0, 2024-01-24 16:28:36.152
207.0, 135401.21291890298, -10028.065446384602, -12838.30557326145, -81075.61094470155, 186274.47620325998, 45313.713885988465, -187500.02235174447, -187500.02235174447, -0.096, -0.17200000000000001, 0.982, 192.0, 0.0, 0.0, 0.0, 0.0, 0.0, 0.0, 0.0, 0.0, 0.0, 1.706088516156364E9, 0.0, 2024-01-24 16:28:36.156
208.0, 144196.49025159958, -9752.64725120631, 3381.550715154495, -86276.03486490666, 186967.3355778856, 3974.006053686864, -187500.02235174447, -187500.02235174447, -0.096, -0.17200000000000001, 0.982, 192.0, 0.0, 0.0, 0.0, 0.0, 0.0, 0.0, 0.0, 0.0, 0.0, 1.7060885161603975E9, 0.0, 2024-01-24 16:28:36.160
209.0, 154942.0243432551, -8262.568207093263, 15008.101166260383, -95294.49436598949, 187500.0, -17426.246991902233, -187500.02235174447, -187500.02235174447, -0.096, -0.17200000000000001, 0.982, 192.0, 0.0, 0.0, 0.0, 0.0, 0.0, 0.0, 0.0, 0.0, 0.0, 1.706088516163392E9, 0.0, 2024-01-24 16:28:36.163
210.0, 157292.6679006419, -7023.007514835301, 14652.931946865554, -98013.22645106632, 187500.0, -13231.986848352773, -187500.02235174447, -187500.02235174447, -0.096, -0.17200000000000001, 0.982, 192.0, 0.0, 0.0, 0.0, 0.0, 0.0, 0.0, 0.0, 0.0, 0.0, 1.706088516167384E9, 0.0, 2024-01-24 16:28:36.167
211.0, 148496.22827723363, -6620.83257685096, 583.5816959836121, -89499.98342990679, 187500.0, 22733.53460234816, -187500.02235174447, -187500.02235174447, -0.096, -0.17200000000000001, 0.982, 192.0, 0.0, 0.0, 0.0, 0.0, 0.0, 0.0, 0.0, 0.0, 0.0, 1.706088516171421E9, 0.0, 2024-01-24 16:28:36.171
212.0, 135731.97403335263, -9943.106465709981, -12727.418569018671, -80918.36642245846, 186731.54702562655, 45510.208071495064, -187500.02235174447, -187500.02235174447, -0.096, -0.17200000000000001, 0.982, 192.0, 0.0, 0.0, 0.0, 0.0, 0.0, 0.0, 0.0, 0.0, 0.0, 1.7060885161754248E9, 0.0, 2024-01-24 16:28:36.175
213.0, 144425.55092877758, -9712.078835019927, 3411.971439358168, -86085.79916784754, 187337.74868699894, 4239.07539118235, -187500.02235174447, -187500.02235174447, -0.096, -0.17200000000000001, 0.982, 192.0, 0.0, 0.0, 0.0, 0.0, 0.0, 0.0, 0.0, 0.0, 0.0, 1.7060885161803968E9, 0.0, 2024-01-24 16:28:36.180
214.0, 155143.9052991754, -8244.686811529018, 15046.590870212422, -95171.00097787392, 187500.0, -17279.954824442248, -187500.02235174447, -187500.02235174447, -0.098, -0.17200000000000001, 0.984, 192.0, 252.0, 240.0, 250.0, 160.0, 30.0, 192.0, 0.0, 0.0, 0.0, 1.7060885161844037E9, 0.0, 2024-01-24 16:28:36.184
215.0, 157545.30966822026, -6979.511020125273, 14739.6790670966, -97920.86904297699, 187500.0, -13150.335925857536, -187500.02235174447, -187500.02235174447, -0.098, -0.17200000000000001, 0.984, 192.0, 0.0, 0.0, 0.0, 0.0, 0.0, 0.0, 0.0, 0.0, 0.0, 1.7060885161874263E9, 0.0, 2024-01-24 16:28:36.187
216.0, 148723.61257357747, -6638.468103226198, 665.7020051124102, -89442.00300478972, 187500.0, 22691.245101838722, -187500.02235174447, -187500.02235174447, -0.098, -0.17200000000000001, 0.984, 192.0, 0.0, 0.0, 0.0, 0.0, 0.0, 0.0, 0.0, 0.0, 0.0, 1.7060885161914196E9, 0.0, 2024-01-24 16:28:36.191
217.0, 135923.34966937898, -9979.07042253857, -12696.595513414803, -80843.35396806645, 187027.37236349256, 45603.66071506271, -187500.02235174447, -187500.02235174447, -0.098, -0.17200000000000001, 0.984, 192.0, 0.0, 0.0, 0.0, 0.0, 0.0, 0.0, 0.0, 0.0, 0.0, 1.7060885161954193E9, 0.0, 2024-01-24 16:28:36.195
218.0, 144599.60396285105, -9733.223585274647, 3424.3096022974973, -85992.12300683535, 187500.0, 4414.603640389877, -187500.02235174447, -187500.02235174447, -0.098, -0.17200000000000001, 0.984, 192.0, 0.0, 0.0, 0.0, 0.0, 0.0, 0.0, 0.0, 0.0, 0.0, 1.7060885161994684E9, 0.0, 2024-01-24 16:28:36.199
219.0, 155412.1262326391, -8187.421642234522, 15147.531348172588, -95036.91286288654, 187500.0, -17166.96675622067, -187500.02235174447, -187500.02235174447, -0.098, -0.17200000000000001, 0.984, 192.0, 0.0, 0.0, 0.0, 0.0, 0.0, 0.0, 0.0, 0.0, 0.0, 1.7060885162044895E9, 0.0, 2024-01-24 16:28:36.204
220.0, 157886.68786128616, -6884.270237001209, 14887.692318879643, -97789.06080592405, 187500.0, -13059.54313988008, -187500.02235174447, -187500.02235174447, -0.098, -0.17200000000000001, 0.984, 192.0, 0.0, 0.0, 0.0, 0.0, 0.0, 0.0, 0.0, 0.0, 0.0, 1.7060885162084746E9, 0.0, 2024-01-24 16:28:36.208
221.0, 149073.01504290284, -6573.022195461059, 820.800759887786, -89349.57854146702, 187500.0, 22673.453113252297, -187500.02235174447, -187500.02235174447, -0.098, -0.17200000000000001, 0.984, 192.0, 0.0, 0.0, 0.0, 0.0, 0.0, 0.0, 0.0, 0.0, 0.0, 1.7060885162124543E9, 0.0, 2024-01-24 16:28:36.212
222.0, 136250.2662837823, -9907.746005981686, -12587.139020817163, -80715.97137641566, 187500.0, 45718.43692284071, -187500.02235174447, -187500.02235174447, -0.098, -0.17200000000000001, 0.984, 192.0, 0.0, 0.0, 0.0, 0.0, 0.0, 0.0, 0.0, 0.0, 0.0, 1.7060885162155056E9, 0.0, 2024-01-24 16:28:36.215
223.0, 144898.67030366306, -9661.966223951129, 3492.3036089305415, -85860.98532211606, 187500.0, 4623.033657435615, -187500.02235174447, -187500.02235174447, -0.098, -0.17200000000000001, 0.984, 192.0, 0.0, 0.0, 0.0, 0.0, 0.0, 0.0, 0.0, 0.0, 0.0, 1.7060885162194867E9, 0.0, 2024-01-24 16:28:36.219
224.0, 155663.38219206122, -8168.310900725234, 15202.784860466107, -94932.03847790224, 187500.0, -17065.3780776713, -187500.02235174447, -187500.02235174447, -0.094, -0.17, 0.984, 192.0, 253.0, 16.0, 250.0, 176.0, 30.0, 192.0, 0.0, 0.0, 0.0, 1.7060885162235093E9, 0.0, 2024-01-24 16:28:36.223
225.0, 158218.11952806945, -6810.040093665135, 15016.63953264231, -97658.39250783832, 187500.0, -12962.08953405494, -187500.02235174447, -187500.02235174447, -0.094, -0.17, 0.984, 192.0, 0.0, 0.0, 0.0, 0.0, 0.0, 0.0, 0.0, 0.0, 0.0, 1.7060885162274868E9, 0.0, 2024-01-24 16:28:36.227
226.0, 149554.73983940363, -6411.88846968275, 1068.7933646194178, -89175.05612075998, 187500.0, 22750.633686856472, -187500.02235174447, -187500.02235174447, -0.094, -0.17, 0.984, 192.0, 0.0, 0.0, 0.0, 0.0, 0.0, 0.0, 0.0, 0.0, 0.0, 1.7060885162315347E9, 0.0, 2024-01-24 16:28:36.231
227.0, 136664.37705330577, -9797.529554072566, -12432.621411397626, -80536.15159227271, 187500.0, 45945.79886744009, -187500.02235174447, -187500.02235174447, -0.094, -0.17, 0.984, 192.0, 0.0, 0.0, 0.0, 0.0, 0.0, 0.0, 0.0, 0.0, 0.0, 1.7060885162365456E9, 0.0, 2024-01-24 16:28:36.236
228.0, 145324.02400064757, -9513.304771578882, 3651.0680497965873, -85653.15880217061, 187500.0, 4921.83177731416, -187500.02235174447, -187500.02235174447, -0.094, -0.17, 0.984, 192.0, 0.0, 0.0, 0.0, 0.0, 0.0, 0.0, 0.0, 0.0, 0.0, 1.7060885162405472E9, 0.0, 2024-01-24 16:28:36.240
229.0, 156228.09901572455, -7905.074406275083, 15472.72687825285, -94668.86903868546, 187500.0, -16799.012338997407, -187500.02235174447, -187500.02235174447, -0.094, -0.17, 0.984, 192.0, 0.0, 0.0, 0.0, 0.0, 0.0, 0.0, 0.0, 0.0, 0.0, 1.70608851624351E9, 0.0, 2024-01-24 16:28:36.243
230.0, 158756.46129327553, -6606.773329588572, 15245.074360975548, -97463.03826129893, 187500.0, -12772.770258518489, -187500.02235174447, -187500.02235174447, -0.094, -0.17, 0.984, 192.0, 0.0, 0.0, 0.0, 0.0, 0.0, 0.0, 0.0, 0.0, 0.0, 1.7060885162474957E9, 0.0, 2024-01-24 16:28:36.247
231.0, 149977.14310612003, -6347.895425307206, 1221.2769652935226, -89075.03206432248, 187500.0, 22758.635611371472, -187500.02235174447, -187500.02235174447, -0.094, -0.17, 0.984, 192.0, 0.0, 0.0, 0.0, 0.0, 0.0, 0.0, 0.0, 0.0, 0.0, 1.7060885162515056E9, 0.0, 2024-01-24 16:28:36.251
232.0, 136993.99822878817, -9790.93578945825, -12371.06470716771, -80417.26266351494, 187500.0, 46088.06772089812, -187500.02235174447, -187500.02235174447, -0.094, -0.17, 0.984, 192.0, 0.0, 0.0, 0.0, 0.0, 0.0, 0.0, 0.0, 0.0, 0.0, 1.7060885162555463E9, 0.0, 2024-01-24 16:28:36.255
233.0, 145554.87281738195, -9568.915911783686, 3628.313973941085, -85553.93940853351, 187500.0, 5116.001381397412, -187500.02235174447, -187500.02235174447, -0.094, -0.164, 0.988, 192.0, 253.0, 16.0, 250.0, 224.0, 30.0, 224.0, 0.0, 0.0, 0.0, 1.706088516259545E9, 0.0, 2024-01-24 16:28:36.259
234.0, 156427.74479719935, -7984.91483746944, 15450.643354731006, -94604.74188384318, 187500.0, -16699.703538382477, -187500.02235174447, -187500.02235174447, -0.094, -0.164, 0.988, 192.0, 0.0, 0.0, 0.0, 0.0, 0.0, 0.0, 0.0, 0.0, 0.0, 1.7060885162645612E9, 0.0, 2024-01-24 16:28:36.264
235.0, 159054.5441573315, -6607.421530177776, 15321.249106079234, -97381.92378067062, 187500.0, -12727.440920763127, -187500.02235174447, -187500.02235174447, -0.094, -0.164, 0.988, 192.0, 0.0, 0.0, 0.0, 0.0, 0.0, 0.0, 0.0, 0.0, 0.0, 1.7060885162685356E9, 0.0, 2024-01-24 16:28:36.268
236.0, 150379.47450631554, -6289.982055423505, 1396.961676712236, -88952.9468361076, 187500.0, 22717.329587618064, -187500.02235174447, -187500.02235174447, -0.094, -0.164, 0.988, 192.0, 0.0, 0.0, 0.0, 0.0, 0.0, 0.0, 0.0, 0.0, 0.0, 1.7060885162725887E9, 0.0, 2024-01-24 16:28:36.272
237.0, 137300.5077005038, -9800.927019229774, -12301.461374933884, -80276.60313565769, 187500.0, 46186.14717556801, -187500.02235174447, -187500.02235174447, -0.094, -0.164, 0.988, 192.0, 0.0, 0.0, 0.0, 0.0, 0.0, 0.0, 0.0, 0.0, 0.0, 1.7060885162755816E9, 0.0, 2024-01-24 16:28:36.275
238.0, 145778.18909623494, -9623.14124383226, 3600.888383494423, -85431.02716577378, 187500.0, 5327.001849055511, -187500.02235174447, -187500.02235174447, -0.094, -0.164, 0.988, 192.0, 0.0, 0.0, 0.0, 0.0, 0.0, 0.0, 0.0, 0.0, 0.0, 1.7060885162795768E9, 0.0, 2024-01-24 16:28:36.279
239.0, 156659.5770906898, -8034.938041560417, 15452.766770454262, -94508.96465885219, 187500.0, -16582.155714292017, -187500.02235174447, -187500.02235174447, -0.094, -0.164, 0.988, 192.0, 0.0, 0.0, 0.0, 0.0, 0.0, 0.0, 0.0, 0.0, 0.0, 1.7060885162836747E9, 0.0, 2024-01-24 16:28:36.283
240.0, 159306.53772432063, -6657.690603457761, 15368.23247292429, -97311.82871005878, 187500.0, -12702.98811232902, -187500.02235174447, -187500.02235174447, -0.094, -0.164, 0.988, 192.0, 0.0, 0.0, 0.0, 0.0, 0.0, 0.0, 0.0, 0.0, 0.0, 1.7060885162876813E9, 0.0, 2024-01-24 16:28:36.287
241.0, 150611.53031725055, -6380.461916978588, 1472.3094072710762, -88901.38136164921, 187500.0, 22578.167626639322, -187500.02235174447, -187500.02235174447, -0.094, -0.164, 0.988, 192.0, 0.0, 0.0, 0.0, 0.0, 0.0, 0.0, 0.0, 0.0, 0.0, 1.7060885162916386E9, 0.0, 2024-01-24 16:28:36.291
242.0, 137506.9037088041, -9877.99583411167, -12277.589711855617, -80165.76083490382, 187500.0, 46233.68933602445, -187500.02235174447, -187500.02235174447, -0.094, -0.164, 0.988, 192.0, 0.0, 0.0, 0.0, 0.0, 0.0, 0.0, 0.0, 0.0, 0.0, 1.7060885162966733E9, 0.0, 2024-01-24 16:28:36.296
243.0, 145924.77183637285, -9722.807672358475, 3557.1683713398425, -85311.40062944897, 187500.0, 5474.478658971627, -187500.02235174447, -187500.02235174447, -0.098, -0.17, 0.98, 192.0, 252.0, 240.0, 250.0, 176.0, 30.0, 160.0, 0.0, 0.0, 0.0, 1.7060885162996705E9, 0.0, 2024-01-24 16:28:36.299
244.0, 156883.40745966524, -8079.976806637861, 15489.155410427502, -94372.39550023025, 187500.0, -16503.87990520953, -187500.02235174447, -187500.02235174447, -0.098, -0.17, 0.98, 192.0, 0.0, 0.0, 0.0, 0.0, 0.0, 0.0, 0.0, 0.0, 0.0, 1.7060885163046448E9, 0.0, 2024-01-24 16:28:36.304
245.0, 159614.20948674792, -6660.864551170415, 15477.152523655, -97166.8329437772, 187500.0, -12673.573216625837, -187500.02235174447, -187500.02235174447, -0.098, -0.17, 0.98, 192.0, 0.0, 0.0, 0.0, 0.0, 0.0, 0.0, 0.0, 0.0, 0.0, 1.706088516307646E9, 0.0, 2024-01-24 16:28:36.307
246.0, 150992.31463579115, -6363.049908047904, 1650.3634036020524, -88739.59943528169, 187500.0, 22515.180410764267, -187500.02235174447, -187500.02235174447, -0.098, -0.17, 0.98, 192.0, 0.0, 0.0, 0.0, 0.0, 0.0, 0.0, 0.0, 0.0, 0.0, 1.706088516311693E9, 0.0, 2024-01-24 16:28:36.311
247.0, 137829.50643652756, -9894.491421519688, -12192.921303858913, -79960.48241382628, 187500.0, 46341.11181987665, -187500.02235174447, -187500.02235174447, -0.098, -0.17, 0.98, 192.0, 0.0, 0.0, 0.0, 0.0, 0.0, 0.0, 0.0, 0.0, 0.0, 1.7060885163157392E9, 0.0, 2024-01-24 16:28:36.315
248.0, 146222.69823821762, -9741.583137700933, 3590.830098489535, -85093.11349309844, 187500.0, 5687.267266186151, -187500.02235174447, -187500.02235174447, -0.098, -0.17, 0.98, 192.0, 0.0, 0.0, 0.0, 0.0, 0.0, 0.0, 0.0, 0.0, 0.0, 1.7060885163196979E9, 0.0, 2024-01-24 16:28:36.319
249.0, 157226.28321960964, -8078.792164181729, 15571.968623634413, -94171.58742804379, 187500.0, -16355.464322026291, -187500.02235174447, -187500.02235174447, -0.098, -0.17, 0.98, 192.0, 0.0, 0.0, 0.0, 0.0, 0.0, 0.0, 0.0, 0.0, 0.0, 1.706088516324657E9, 0.0, 2024-01-24 16:28:36.324
250.0, 160009.34362522885, -6642.558472461519, 15607.329083362709, -96985.04620612219, 187500.0, -12569.928177586578, -187500.02235174447, -187500.02235174447, -0.098, -0.17, 0.98, 192.0, 0.0, 0.0, 0.0, 0.0, 0.0, 0.0, 0.0, 0.0, 0.0, 1.7060885163276448E9, 0.0, 2024-01-24 16:28:36.327
251.0, 151411.45454781706, -6358.311338223379, 1808.3231816677073, -88589.61922998658, 187500.0, 22514.085175285956, -187500.02235174447, -187500.02235174447, -0.098, -0.17, 0.98, 192.0, 0.0, 0.0, 0.0, 0.0, 0.0, 0.0, 0.0, 0.0, 0.0, 1.7060885163316343E9, 0.0, 2024-01-24 16:28:36.331
252.0, 138164.04499579014, -9940.267794164158, -12136.371390386987, -79801.47210377123, 187500.0, 46464.94048415905, -187500.02235174447, -187500.02235174447, -0.098, -0.17, 0.98, 192.0, 0.0, 0.0, 0.0, 0.0, 0.0, 0.0, 0.0, 0.0, 0.0, 1.7060885163356364E9, 0.0, 2024-01-24 16:28:36.335
253.0, 146513.1368056699, -9793.79681274853, 3598.4296916043395, -84903.52599662852, 187500.0, 5908.370722338048, -187500.02235174447, -187500.02235174447, -0.094, -0.17, 0.978, 192.0, 253.0, 16.0, 250.0, 176.0, 30.0, 144.0, 0.0, 0.0, 0.0, 1.7060885163396604E9, 0.0, 2024-01-24 16:28:36.339
254.0, 157554.183310769, -8120.209946657414, 15635.693447076494, -93988.8842688661, 187500.0, -16226.718273963723, -187500.02235174447, -187500.02235174447, -0.094, -0.17, 0.978, 192.0, 0.0, 0.0, 0.0, 0.0, 0.0, 0.0, 0.0, 0.0, 0.0, 1.7060885163436892E9, 0.0, 2024-01-24 16:28:36.343
255.0, 160345.73737928123, -6702.528202835108, 15691.326939025754, -96831.80264613661, 187500.0, -12514.80877575979, -187500.02235174447, -187500.02235174447, -0.094, -0.17, 0.978, 192.0, 0.0, 0.0, 0.0, 0.0, 0.0, 0.0, 0.0, 0.0, 0.0, 1.706088516347672E9, 0.0, 2024-01-24 16:28:36.347
0.0, 151775.85503767195, -6420.806815720417, 1933.3141366617845, -88462.99659764727, 187500.0, 22462.184424660736, -187500.02235174447, -187500.02235174447, -0.094, -0.17, 0.978, 192.0, 0.0, 0.0, 0.0, 0.0, 0.0, 0.0, 0.0, 0.0, 0.0, 1.7060885163526728E9, 0.0, 2024-01-24 16:28:36.352
1.0, 138464.89947615858, -10033.60867900952, -12097.30054107911, -79649.25672403058, 187500.0, 46569.479592976524, -187500.02235174447, -187500.02235174447, -0.094, -0.17, 0.978, 192.0, 0.0, 0.0, 0.0, 0.0, 0.0, 0.0, 0.0, 0.0, 0.0, 1.7060885163556733E9, 0.0, 2024-01-24 16:28:36.355
2.0, 146728.92054664143, -9920.352389854479, 3563.0468801315883, -84726.9472154316, 187500.0, 6099.142861264094, -187500.02235174447, -187500.02235174447, -0.094, -0.17, 0.978, 192.0, 0.0, 0.0, 0.0, 0.0, 0.0, 0.0, 0.0, 0.0, 0.0, 1.706088516359698E9, 0.0, 2024-01-24 16:28:36.359
3.0, 157872.67331751267, -8170.881351337594, 15704.737985698937, -93792.25597289276, 187500.0, -16102.599037003403, -187500.02235174447, -187500.02235174447, -0.094, -0.17, 0.978, 192.0, 0.0, 0.0, 0.0, 0.0, 0.0, 0.0, 0.0, 0.0, 0.0, 1.7060885163637035E9, 0.0, 2024-01-24 16:28:36.363
4.0, 160742.190270685, -6711.42419712832, 15817.010798097945, -96646.0149462241, 187500.0, -12408.392120408073, -187500.02235174447, -187500.02235174447, -0.094, -0.17, 0.978, 192.0, 0.0, 0.0, 0.0, 0.0, 0.0, 0.0, 0.0, 0.0, 0.0, 1.706088516367739E9, 0.0, 2024-01-24 16:28:36.367
5.0, 152188.2223711279, -6457.821304538406, 2072.2972836848835, -88325.30985180258, 187500.0, 22470.02988696455, -187500.02235174447, -187500.02235174447, -0.094, -0.17, 0.978, 192.0, 0.0, 0.0, 0.0, 0.0, 0.0, 0.0, 0.0, 0.0, 0.0, 1.7060885163717568E9, 0.0, 2024-01-24 16:28:36.371
6.0, 138783.59064860235, -10133.632735447018, -12069.00323259869, -79521.74002191306, 187500.0, 46683.20526876513, -187500.02235174447, -187500.02235174447, -0.094, -0.17, 0.978, 192.0, 0.0, 0.0, 0.0, 0.0, 0.0, 0.0, 0.0, 0.0, 0.0, 1.7060885163757365E9, 0.0, 2024-01-24 16:28:36.375
7.0, 146937.81995032073, -10071.405478883444, 3506.2734492151085, -84588.85813818671, 187500.0, 6265.775116178408, -187500.02235174447, -187500.02235174447, -0.092, -0.162, 0.984, 192.0, 253.0, 32.0, 250.0, 240.0, 30.0, 192.0, 0.0, 0.0, 0.0, 1.706088516380721E9, 0.0, 2024-01-24 16:28:36.380
8.0, 158126.54443103605, -8278.437945656533, 15720.987703917946, -93636.91134892838, 187500.0, -16009.459317858138, -187500.02235174447, -187500.02235174447, -0.092, -0.162, 0.984, 192.0, 0.0, 0.0, 0.0, 0.0, 0.0, 0.0, 0.0, 0.0, 0.0, 1.70608851638382E9, 0.0, 2024-01-24 16:28:36.383
9.0, 161005.49382036852, -6812.699951255317, 15859.769685240948, -96504.774273011, 187500.0, -12355.865520938101, -187500.02235174447, -187500.02235174447, -0.092, -0.162, 0.984, 192.0, 0.0, 0.0, 0.0, 0.0, 0.0, 0.0, 0.0, 0.0, 0.0, 1.7060885163877518E9, 0.0, 2024-01-24 16:28:36.387
10.0, 152513.88728784173, -6527.424636772232, 2178.3563111253156, -88193.92629789429, 187500.0, 22448.996895432105, -187500.02235174447, -187500.02235174447, -0.092, -0.162, 0.984, 192.0, 0.0, 0.0, 0.0, 0.0, 0.0, 0.0, 0.0, 0.0, 0.0, 1.7060885163917143E9, 0.0, 2024-01-24 16:28:36.391
11.0, 139070.89997183086, -10216.44594865393, -12028.926554790325, -79368.20588924956, 187500.0, 46796.46155792017, -187500.02235174447, -187500.02235174447, -0.092, -0.162, 0.984, 192.0, 0.0, 0.0, 0.0, 0.0, 0.0, 0.0, 0.0, 0.0, 0.0, 1.706088516395744E9, 0.0, 2024-01-24 16:28:36.395
12.0, 147165.40541236466, -10166.981538174336, 3482.9158762593124, -84405.50677841983, 187500.0, 6475.657996613741, -187500.02235174447, -187500.02235174447, -0.092, -0.162, 0.984, 192.0, 0.0, 0.0, 0.0, 0.0, 0.0, 0.0, 0.0, 0.0, 0.0, 1.7060885163997436E9, 0.0, 2024-01-24 16:28:36.399
13.0, 158406.67884429442, -8348.175388357091, 15761.757285804426, -93467.48512595716, 187500.0, -15878.969833728057, -187500.02235174447, -187500.02235174447, -0.092, -0.162, 0.984, 192.0, 0.0, 0.0, 0.0, 0.0, 0.0, 0.0, 0.0, 0.0, 0.0, 1.706088516403787E9, 0.0, 2024-01-24 16:28:36.403
14.0, 161407.22172346376, -6798.640703992928, 15994.327186861896, -96305.84374735877, 187500.0, -12211.1826790789, -187500.02235174447, -187500.02235174447, -0.092, -0.162, 0.984, 192.0, 0.0, 0.0, 0.0, 0.0, 0.0, 0.0, 0.0, 0.0, 0.0, 1.706088516408784E9, 0.0, 2024-01-24 16:28:36.408
15.0, 152985.97848248226, -6485.537467662986, 2374.269351276082, -87998.28147867697, 187500.0, 22553.2230798272, -187500.02235174447, -187500.02235174447, -0.092, -0.162, 0.984, 192.0, 0.0, 0.0, 0.0, 0.0, 0.0, 0.0, 0.0, 0.0, 0.0, 1.7060885164117787E9, 0.0, 2024-01-24 16:28:36.411
16.0, 139460.82615385368, -10233.656791884518, -11922.621658160884, -79171.46583455394, 187500.0, 47003.37165634295, -187500.02235174447, -187500.02235174447, -0.092, -0.162, 0.984, 192.0, 0.0, 0.0, 0.0, 0.0, 0.0, 0.0, 0.0, 0.0, 0.0, 1.7060885164148815E9, 0.0, 2024-01-24 16:28:36.414
17.0, 147516.93129741328, -10184.952340716403, 3556.5872259840044, -84178.21188905381, 187500.0, 6750.807970858571, -187500.02235174447, -187500.02235174447, -0.094, -0.162, 0.978, 192.0, 253.0, 16.0, 250.0, 240.0, 30.0, 144.0, 0.0, 0.0, 0.0, 1.7060885164198048E9, 0.0, 2024-01-24 16:28:36.419
18.0, 158841.66614313915, -8300.02973080036, 15915.716101612581, -93224.96869861707, 187500.0, -15658.447522931996, -187500.02235174447, -187500.02235174447, -0.094, -0.162, 0.978, 192.0, 0.0, 0.0, 0.0, 0.0, 0.0, 0.0, 0.0, 0.0, 0.0, 1.7060885164237816E9, 0.0, 2024-01-24 16:28:36.423
19.0, 161777.433666877, -6821.886518226447, 16097.592246245415, -96129.82375977324, 187500.0, -12063.504703462686, -187500.02235174447, -187500.02235174447, -0.094, -0.162, 0.978, 192.0, 0.0, 0.0, 0.0, 0.0, 0.0, 0.0, 0.0, 0.0, 0.0, 1.7060885164277709E9, 0.0, 2024-01-24 16:28:36.427
20.0, 153263.92242478402, -6606.013370277092, 2428.6734972802997, -87908.98625957803, 187500.0, 22549.75855943663, -187500.02235174447, -187500.02235174447, -0.094, -0.162, 0.978, 192.0, 0.0, 0.0, 0.0, 0.0, 0.0, 0.0, 0.0, 0.0, 0.0, 1.7060885164318063E9, 0.0, 2024-01-24 16:28:36.431
21.0, 139666.8645342427, -10397.942113631025, -11950.673097452296, -79092.54182488225, 187500.0, 47081.53570670315, -187500.02235174447, -187500.02235174447, -0.094, -0.162, 0.978, 192.0, 0.0, 0.0, 0.0, 0.0, 0.0, 0.0, 0.0, 0.0, 0.0, 1.7060885164357965E9, 0.0, 2024-01-24 16:28:36.435
22.0, 147614.47431021623, -10397.875058397658, 3445.0743728964776, -84097.9467747148, 187500.0, 6861.40440242343, -187500.02235174447, -187500.02235174447, -0.094, -0.162, 0.978, 192.0, 0.0, 0.0, 0.0, 0.0, 0.0, 0.0, 0.0, 0.0, 0.0, 1.70608851644081E9, 0.0, 2024-01-24 16:28:36.440
23.0, 159026.60447676235, -8433.559052176362, 15904.070842751365, -93111.39948503966, 187500.0, -15594.61094076764, -187500.02235174447, -187500.02235174447, -0.094, -0.162, 0.978, 192.0, 0.0, 0.0, 0.0, 0.0, 0.0, 0.0, 0.0, 0.0, 0.0, 1.7060885164438334E9, 0.0, 2024-01-24 16:28:36.443
24.0, 162001.44284980808, -6932.035914902201, 16118.871106966866, -96019.5626043752, 187500.0, -12004.585505078496, -187500.02235174447, -187500.02235174447, -0.094, -0.162, 0.978, 192.0, 0.0, 0.0, 0.0, 0.0, 0.0, 0.0, 0.0, 0.0, 0.0, 1.7060885164478593E9, 0.0, 2024-01-24 16:28:36.447
25.0, 153492.8713432397, -6736.636964873906, 2468.2584367106483, -87840.70168026707, 187500.0, 22522.712948645705, -187500.02235174447, -187500.02235174447, -0.094, -0.162, 0.978, 192.0, 0.0, 0.0, 0.0, 0.0, 0.0, 0.0, 0.0, 0.0, 0.0, 1.7060885164518523E9, 0.0, 2024-01-24 16:28:36.451
26.0, 139861.8611528708, -10533.840719919292, -11963.346536558454, -79007.91812037447, 187500.0, 47190.209888244855, -187500.02235174447, -187500.02235174447, -0.094, -0.162, 0.978, 192.0, 0.0, 0.0, 0.0, 0.0, 0.0, 0.0, 0.0, 0.0, 0.0, 1.7060885164558244E9, 0.0, 2024-01-24 16:28:36.455
27.0, 147762.66637595493, -10532.678429207615, 3401.1755467862545, -83979.10254944593, 187500.0, 7021.755817145803, -187500.02235174447, -187500.02235174447, -0.088, -0.168, 0.98, 192.0, 253.0, 64.0, 250.0, 192.0, 30.0, 160.0, 0.0, 0.0, 0.0, 1.7060885164599044E9, 0.0, 2024-01-24 16:28:36.459
28.0, 159256.76038941866, -8499.742567508527, 15951.858872396813, -92965.46494549095, 187500.0, -15497.894942509527, -187500.02235174447, -187500.02235174447, -0.088, -0.168, 0.98, 192.0, 0.0, 0.0, 0.0, 0.0, 0.0, 0.0, 0.0, 0.0, 0.0, 1.7060885164639184E9, 0.0, 2024-01-24 16:28:36.463
29.0, 162219.81939313645, -7020.660581667493, 16159.193653964241, -95911.06723678914, 187500.0, -11941.441826992253, -187500.02235174447, -187500.02235174447, -0.088, -0.168, 0.98, 192.0, 0.0, 0.0, 0.0, 0.0, 0.0, 0.0, 0.0, 0.0, 0.0, 1.706088516466854E9, 0.0, 2024-01-24 16:28:36.466
30.0, 153792.47412591864, -6785.520229997663, 2575.9267897518625, -87749.61832161169, 187500.0, 22517.661454398807, -187500.02235174447, -187500.02235174447, -0.088, -0.168, 0.98, 192.0, 0.0, 0.0, 0.0, 0.0, 0.0, 0.0, 0.0, 0.0, 0.0, 1.70608851647085E9, 0.0, 2024-01-24 16:28:36.470
31.0, 140082.1152427334, -10644.235985784053, -11959.122056856402, -78922.5344565552, 187500.0, 47302.54975587723, -187500.02235174447, -187500.02235174447, -0.088, -0.168, 0.98, 192.0, 0.0, 0.0, 0.0, 0.0, 0.0, 0.0, 0.0, 0.0, 0.0, 1.7060885164759097E9, 0.0, 2024-01-24 16:28:36.475
32.0, 147839.04228675872, -10724.724617567614, 3311.813272453937, -83894.0988652824, 187500.0, 7136.062638290244, -187500.02235174447, -187500.02235174447, -0.088, -0.168, 0.98, 192.0, 0.0, 0.0, 0.0, 0.0, 0.0, 0.0, 0.0, 0.0, 0.0, 1.7060885164798927E9, 0.0, 2024-01-24 16:28:36.479
33.0, 159340.9594107818, -8678.087136517423, 15908.496488153516, -92881.86942122811, 187500.0, -15464.657898504485, -187500.02235174447, -187500.02235174447, -0.088, -0.168, 0.98, 192.0, 0.0, 0.0, 0.0, 0.0, 0.0, 0.0, 0.0, 0.0, 0.0, 1.7060885164838932E9, 0.0, 2024-01-24 16:28:36.483
34.0, 162343.64805741885, -7160.470743235439, 16157.494921385638, -95834.75838121872, 187500.0, -11917.324294724976, -187500.02235174447, -187500.02235174447, -0.088, -0.168, 0.98, 192.0, 0.0, 0.0, 0.0, 0.0, 0.0, 0.0, 0.0, 0.0, 0.0, 1.7060885164878817E9, 0.0, 2024-01-24 16:28:36.487
35.0, 153957.22883429873, -6908.298362290664, 2619.3115257396134, -87697.20348086399, 187500.0, 22466.09597994041, -187500.02235174447, -187500.02235174447, -0.088, -0.168, 0.98, 192.0, 0.0, 0.0, 0.0, 0.0, 0.0, 0.0, 0.0, 0.0, 0.0, 1.7060885164919035E9, 0.0, 2024-01-24 16:28:36.491
36.0, 140200.31126741305, -10785.878990397334, -11974.410650063832, -78857.33441797906, 187500.0, 47365.64873047456, -187500.02235174447, -187500.02235174447, -0.092, -0.162, 0.978, 192.0, 253.0, 32.0, 250.0, 240.0, 30.0, 144.0, 0.0, 0.0, 0.0, 1.706088516494903E9, 0.0, 2024-01-24 16:28:36.494
37.0, 147884.0587000917, -10890.127526536886, 3241.0252977639793, -83813.61023349884, 187500.0, 7239.350049418217, -187500.02235174447, -187500.02235174447, -0.092, -0.162, 0.978, 192.0, 0.0, 0.0, 0.0, 0.0, 0.0, 0.0, 0.0, 0.0, 0.0, 1.7060885164989069E9, 0.0, 2024-01-24 16:28:36.498
38.0, 159422.11859489902, -8820.89243184238, 15885.675357064649, -92803.52655691226, 187500.0, -15437.656991202473, -187500.02235174447, -187500.02235174447, -0.092, -0.162, 0.978, 192.0, 0.0, 0.0, 0.0, 0.0, 0.0, 0.0, 0.0, 0.0, 0.0, 1.7060885165039077E9, 0.0, 2024-01-24 16:28:36.503
39.0, 162376.66158397932, -7361.368222399738, 16098.374557301351, -95811.44551175184, 187500.0, -11923.851004105927, -187500.02235174447, -187500.02235174447, -0.092, -0.162, 0.978, 192.0, 0.0, 0.0, 0.0, 0.0, 0.0, 0.0, 0.0, 0.0, 0.0, 1.7060885165080872E9, 0.0, 2024-01-24 16:28:36.508
40.0, 154027.39096014394, -7101.730358806892, 2601.251316219725, -87698.38812332012, 187500.0, 22386.635528401795, -187500.02235174447, -187500.02235174447, -0.092, -0.162, 0.978, 192.0, 0.0, 0.0, 0.0, 0.0, 0.0, 0.0, 0.0, 0.0, 0.0, 1.706088516511959E9, 0.0, 2024-01-24 16:28:36.511
41.0, 140286.56664926608, -10945.49279755268, -12021.751644820171, -78810.84278951203, 187500.0, 47450.49595242691, -187500.02235174447, -187500.02235174447, -0.092, -0.162, 0.978, 192.0, 0.0, 0.0, 0.0, 0.0, 0.0, 0.0, 0.0, 0.0, 0.0, 1.7060885165159645E9, 0.0, 2024-01-24 16:28:36.515
42.0, 147907.37156955857, -11060.961909408798, 3145.4715902175417, -83735.82616279437, 187500.0, 7376.880333051722, -187500.02235174447, -187500.02235174447, -0.092, -0.162, 0.978, 192.0, 0.0, 0.0, 0.0, 0.0, 0.0, 0.0, 0.0, 0.0, 0.0, 1.7060885165199249E9, 0.0, 2024-01-24 16:28:36.519
43.0, 159520.57802922465, -8921.944668524822, 15881.450877362595, -92711.21385231183, 187500.0, -15374.692127071874, -187500.02235174447, -187500.02235174447, -0.092, -0.162, 0.978, 192.0, 0.0, 0.0, 0.0, 0.0, 0.0, 0.0, 0.0, 0.0, 0.0, 1.70608851652299E9, 0.0, 2024-01-24 16:28:36.522
44.0, 162536.87888823496, -7423.5284237299475, 16140.395836877327, -95731.13569392392, 187500.0, -11863.456590587688, -187500.02235174447, -187500.02235174447, -0.092, -0.162, 0.978, 192.0, 0.0, 0.0, 0.0, 0.0, 0.0, 0.0, 0.0, 0.0, 0.0, 1.7060885165270376E9, 0.0, 2024-01-24 16:28:36.527
45.0, 154192.637406902, -7187.51635402636, 2649.0840493540823, -87654.2434280209, 187500.0, 22373.47035091762, -187500.02235174447, -187500.02235174447, -0.092, -0.162, 0.978, 192.0, 0.0, 0.0, 0.0, 0.0, 0.0, 0.0, 0.0, 0.0, 0.0, 1.7060885165309591E9, 0.0, 2024-01-24 16:28:36.530
46.0, 140396.38076977502, -11064.158208865907, -12051.1441887789, -78751.36479751645, 187500.0, 47549.0224419859, -187500.02235174447, -187500.02235174447, -0.08600000000000001, -0.162, 0.984, 192.0, 253.0, 80.0, 250.0, 240.0, 30.0, 192.0, 0.0, 0.0, 0.0, 1.7060885165359504E9, 0.0, 2024-01-24 16:28:36.535
47.0, 147910.88079343806, -11244.380324409047, 3041.5136267559087, -83684.05952263589, 187500.0, 7477.865514500799, -187500.02235174447, -187500.02235174447, -0.08600000000000001, -0.162, 0.984, 192.0, 0.0, 0.0, 0.0, 0.0, 0.0, 0.0, 0.0, 0.0, 0.0, 1.706088516540033E9, 0.0, 2024-01-24 16:28:36.540
48.0, 159531.08334911865, -9096.869420632056, 15816.675521931116, -92669.3266832026, 187500.0, -15361.102266443047, -187500.02235174447, -187500.02235174447, -0.08600000000000001, -0.162, 0.984, 192.0, 0.0, 0.0, 0.0, 0.0, 0.0, 0.0, 0.0, 0.0, 0.0, 1.7060885165439823E9, 0.0, 2024-01-24 16:28:36.543
49.0, 162562.0246007472, -7592.038225178508, 16101.883781180833, -95724.11724616495, 187500.0, -11880.533323351541, -187500.02235174447, -187500.02235174447, -0.08600000000000001, -0.162, 0.984, 192.0, 0.0, 0.0, 0.0, 0.0, 0.0, 0.0, 0.0, 0.0, 0.0, 1.7060885165469975E9, 0.0, 2024-01-24 16:28:36.546
50.0, 154272.6119485631, -7323.370256825717, 2663.970311161317, -87661.68655892451, 187500.0, 22294.591044734843, -187500.02235174447, -187500.02235174447, -0.08600000000000001, -0.162, 0.984, 192.0, 0.0, 0.0, 0.0, 0.0, 0.0, 0.0, 0.0, 0.0, 0.0, 1.7060885165510104E9, 0.0, 2024-01-24 16:28:36.551
51.0, 140482.45733767241, -11163.444657736381, -12070.612558199473, -78709.075297007, 187500.0, 47635.389582561205, -187500.02235174447, -187500.02235174447, -0.08600000000000001, -0.162, 0.984, 192.0, 0.0, 0.0, 0.0, 0.0, 0.0, 0.0, 0.0, 0.0, 0.0, 1.7060885165550115E9, 0.0, 2024-01-24 16:28:36.555
52.0, 147939.9604129744, -11351.266366394326, 2973.094936978214, -83620.96054803855, 187500.0, 7631.8466820534095, -187500.02235174447, -187500.02235174447, -0.08600000000000001, -0.162, 0.984, 192.0, 0.0, 0.0, 0.0, 0.0, 0.0, 0.0, 0.0, 0.0, 0.0, 1.7060885165591593E9, 0.0, 2024-01-24 16:28:36.559
53.0, 159536.71598872138, -9225.39195125007, 15761.109085215223, -92644.69506081284, 187500.0, -15311.637855963452, -187500.02235174447, -187500.02235174447, -0.08600000000000001, -0.162, 0.984, 192.0, 0.0, 0.0, 0.0, 0.0, 0.0, 0.0, 0.0, 0.0, 0.0, 1.7060885165640311E9, 0.0, 2024-01-24 16:28:36.564
54.0, 162544.79140577215, -7753.373116656914, 16049.111312521854, -95768.55251414211, 187500.0, -11902.370977684377, -187500.02235174447, -187500.02235174447, -0.08600000000000001, -0.162, 0.984, 192.0, 0.0, 0.0, 0.0, 0.0, 0.0, 0.0, 0.0, 0.0, 0.0, 1.7060885165680523E9, 0.0, 2024-01-24 16:28:36.568
55.0, 154324.69151314397, -7443.7791042064555, 2679.4377183243896, -87721.36571662017, 187500.0, 22181.044182901882, -187500.02235174447, -187500.02235174447, -0.08600000000000001, -0.162, 0.984, 192.0, 0.0, 0.0, 0.0, 0.0, 0.0, 0.0, 0.0, 0.0, 0.0, 1.7060885165720272E9, 0.0, 2024-01-24 16:28:36.572
56.0, 140527.49610274984, -11257.6572606155, -12113.214983131289, -78712.58452088649, 187500.0, 47711.27375498698, -187500.02235174447, -187500.02235174447, -0.092, -0.16, 0.986, 192.0, 253.0, 32.0, 251.0, 0.0, 30.0, 208.0, 0.0, 0.0, 0.0, 1.7060885165760324E9, 0.0, 2024-01-24 16:28:36.576
57.0, 147893.3123222962, -11486.360309882202, 2863.3925751915667, -83610.58933861129, 187500.0, 7742.3760583849025, -187500.02235174447, -187500.02235174447, -0.092, -0.16, 0.986, 192.0, 0.0, 0.0, 0.0, 0.0, 0.0, 0.0, 0.0, 0.0, 0.0, 1.7060885165800328E9, 0.0, 2024-01-24 16:28:36.580
58.0, 159549.27766910527, -9313.323713937249, 15736.276297125376, -92618.96820294479, 187500.0, -15292.817687132085, -187500.02235174447, -187500.02235174447, -0.092, -0.16, 0.986, 192.0, 0.0, 0.0, 0.0, 0.0, 0.0, 0.0, 0.0, 0.0, 0.0, 1.7060885165831187E9, 0.0, 2024-01-24 16:28:36.583
59.0, 162609.25383678125, -7822.954097146285, 16069.898434865288, -95765.62443561846, 187500.0, -11916.519631924586, -187500.02235174447, -187500.02235174447, -0.092, -0.16, 0.986, 192.0, 0.0, 0.0, 0.0, 0.0, 0.0, 0.0, 0.0, 0.0, 0.0, 1.7060885165872169E9, 0.0, 2024-01-24 16:28:36.587
60.0, 154433.81272957477, -7516.355218452838, 2735.406486440478, -87748.6571966001, 187500.0, 22085.378716633168, -187500.02235174447, -187500.02235174447, -0.092, -0.16, 0.986, 192.0, 0.0, 0.0, 0.0, 0.0, 0.0, 0.0, 0.0, 0.0, 0.0, 1.7060885165920591E9, 0.0, 2024-01-24 16:28:36.592
61.0, 140557.6262542756, -11370.86884628163, -12169.563730903117, -78715.11026800994, 187500.0, 47791.56122107044, -187500.02235174447, -187500.02235174447, -0.092, -0.16, 0.986, 192.0, 0.0, 0.0, 0.0, 0.0, 0.0, 0.0, 0.0, 0.0, 0.0, 1.7060885165961008E9, 0.0, 2024-01-24 16:28:36.596
62.0, 147778.7819837072, -11682.183943055146, 2701.9906284797944, -83628.49308592, 187500.0, 7839.1144083874715, -187500.02235174447, -187500.02235174447, -0.092, -0.16, 0.986, 192.0, 0.0, 0.0, 0.0, 0.0, 0.0, 0.0, 0.0, 0.0, 0.0, 1.7060885166001656E9, 0.0, 2024-01-24 16:28:36.600
63.0, 159424.5772867891, -9509.124995365739, 15606.055033928757, -92662.66586335491, 187500.0, -15298.047995334626, -187500.02235174447, -187500.02235174447, -0.092, -0.16, 0.986, 192.0, 0.0, 0.0, 0.0, 0.0, 0.0, 0.0, 0.0, 0.0, 0.0, 1.7060885166030877E9, 0.0, 2024-01-24 16:28:36.603
64.0, 162472.81878862606, -8021.1917187204035, 15961.224253323586, -95851.41043083793, 187500.0, -11988.671063026317, -187500.02235174447, -187500.02235174447, -0.092, -0.16, 0.986, 192.0, 0.0, 0.0, 0.0, 0.0, 0.0, 0.0, 0.0, 0.0, 0.0, 1.706088516607115E9, 0.0, 2024-01-24 16:28:36.607
65.0, 154380.12383939314, -7652.387935207837, 2713.6582390854646, -87844.72499426903, 187500.0, 21926.90484844504, -187500.02235174447, -187500.02235174447, -0.092, -0.16, 0.986, 192.0, 0.0, 0.0, 0.0, 0.0, 0.0, 0.0, 0.0, 0.0, 0.0, 1.706088516611114E9, 0.0, 2024-01-24 16:28:36.611
66.0, 140509.68176241897, -11469.998832940917, -12231.522766533228, -78769.13443435842, 187500.0, 47821.69137259619, -187500.02235174447, -187500.02235174447, -0.094, -0.164, 0.992, 192.0, 253.0, 16.0, 250.0, 224.0, 31.0, 0.0, 0.0, 0.0, 0.0, 1.7060885166151135E9, 0.0, 2024-01-24 16:28:36.615
67.0, 147631.48398774673, -11832.141796605802, 2564.46034484629, -83672.07898760783, 187500.0, 7912.741054623253, -187500.02235174447, -187500.02235174447, -0.094, -0.164, 0.992, 192.0, 0.0, 0.0, 0.0, 0.0, 0.0, 0.0, 0.0, 0.0, 0.0, 1.7060885166201088E9, 0.0, 2024-01-24 16:28:36.620
68.0, 159280.47559028573, -9642.251985341547, 15513.943495028436, -92702.76489290773, 187500.0, -15327.529946271176, -187500.02235174447, -187500.02235174447, -0.094, -0.164, 0.992, 192.0, 0.0, 0.0, 0.0, 0.0, 0.0, 0.0, 0.0, 0.0, 0.0, 1.7060885166241148E9, 0.0, 2024-01-24 16:28:36.624
69.0, 162393.40304057635, -8106.418920328489, 15927.92015408518, -95900.07017851713, 187500.0, -12043.879871830926, -187500.02235174447, -187500.02235174447, -0.094, -0.164, 0.992, 192.0, 0.0, 0.0, 0.0, 0.0, 0.0, 0.0, 0.0, 0.0, 0.0, 1.7060885166281552E9, 0.0, 2024-01-24 16:28:36.628
70.0, 154345.9256703765, -7732.6754012913, 2724.25296595728, -87929.7063266881, 187500.0, 21777.148160594483, -187500.02235174447, -187500.02235174447, -0.094, -0.164, 0.992, 192.0, 0.0, 0.0, 0.0, 0.0, 0.0, 0.0, 0.0, 0.0, 0.0, 1.7060885166311433E9, 0.0, 2024-01-24 16:28:36.631
71.0, 140439.9890232073, -11561.506874740944, -12297.81804058767, -78827.94187402033, 187500.0, 47863.444431238706, -187500.02235174447, -187500.02235174447, -0.094, -0.164, 0.992, 192.0, 0.0, 0.0, 0.0, 0.0, 0.0, 0.0, 0.0, 0.0, 0.0, 1.706088516635144E9, 0.0, 2024-01-24 16:28:36.635
72.0, 147457.31919495098, -11975.483533797686, 2422.727933255188, -83734.35094766032, 187500.0, 7994.39197711849, -187500.02235174447, -187500.02235174447, -0.094, -0.164, 0.992, 192.0, 0.0, 0.0, 0.0, 0.0, 0.0, 0.0, 0.0, 0.0, 0.0, 1.7060885166391413E9, 0.0, 2024-01-24 16:28:36.639
73.0, 159134.78691992606, -9750.07680059395, 15429.72212192084, -92753.14572490999, 187500.0, -15344.60667903503, -187500.02235174447, -187500.02235174447, -0.094, -0.164, 0.992, 192.0, 0.0, 0.0, 0.0, 0.0, 0.0, 0.0, 0.0, 0.0, 0.0, 1.7060885166432712E9, 0.0, 2024-01-24 16:28:36.643
74.0, 162183.1401804853, -8272.738250820428, 15813.702739918559, -96014.04172349474, 187500.0, -12130.828157762071, -187500.02235174447, -187500.02235174447, -0.094, -0.164, 0.992, 192.0, 0.0, 0.0, 0.0, 0.0, 0.0, 0.0, 0.0, 0.0, 0.0, 1.7060885166482167E9, 0.0, 2024-01-24 16:28:36.648
75.0, 154127.3256096036, -7929.99660134275, 2634.9577468583284, -88098.8419769814, 187500.0, 21549.74151250619, -187500.02235174447, -187500.02235174447, -0.094, -0.164, 0.992, 192.0, 0.0, 0.0, 0.0, 0.0, 0.0, 0.0, 0.0, 0.0, 0.0, 1.7060885166522028E9, 0.0, 2024-01-24 16:28:36.652
76.0, 140239.9409103323, -11704.915667166195, -12415.656437356049, -78919.80754373164, 187500.0, 47841.40561120577, -187500.02235174447, -187500.02235174447, -0.098, -0.162, 0.996, 192.0, 252.0, 240.0, 250.0, 240.0, 31.0, 32.0, 0.0, 0.0, 0.0, 1.7060885166563003E9, 0.0, 2024-01-24 16:28:36.656
77.0, 147208.52192741894, -12113.058520920102, 2244.606881690846, -83763.56467766341, 187500.0, 8107.134176151058, -187500.02235174447, -187500.02235174447, -0.098, -0.162, 0.996, 192.0, 0.0, 0.0, 0.0, 0.0, 0.0, 0.0, 0.0, 0.0, 0.0, 1.7060885166592984E9, 0.0, 2024-01-24 16:28:36.659
78.0, 158899.87008570076, -9888.344691794478, 15303.4124140039, -92794.96583878588, 187500.0, -15350.03815293767, -187500.02235174447, -187500.02235174447, -0.098, -0.162, 0.996, 192.0, 0.0, 0.0, 0.0, 0.0, 0.0, 0.0, 0.0, 0.0, 0.0, 1.7060885166632032E9, 0.0, 2024-01-24 16:28:36.663
79.0, 161979.8287129198, -8395.583438346797, 15728.900221455126, -96068.75879392133, 187500.0, -12180.113754286022, -187500.02235174447, -187500.02235174447, -0.098, -0.162, 0.996, 192.0, 0.0, 0.0, 0.0, 0.0, 0.0, 0.0, 0.0, 0.0, 0.0, 1.7060885166672037E9, 0.0, 2024-01-24 16:28:36.667
80.0, 154022.0041897302, -8000.739872543797, 2638.422267248901, -88161.9633033232, 187500.0, 21410.66895850527, -187500.02235174447, -187500.02235174447, -0.098, -0.162, 0.996, 192.0, 0.0, 0.0, 0.0, 0.0, 0.0, 0.0, 0.0, 0.0, 0.0, 1.706088516671391E9, 0.0, 2024-01-24 16:28:36.671
81.0, 140153.88669417938, -11746.51226359752, -12448.334687749708, -78948.12720395651, 187500.0, 47877.72719594565, -187500.02235174447, -187500.02235174447, -0.098, -0.162, 0.996, 192.0, 0.0, 0.0, 0.0, 0.0, 0.0, 0.0, 0.0, 0.0, 0.0, 1.7060885166752656E9, 0.0, 2024-01-24 16:28:36.675
82.0, 147083.86624859172, -12160.220701720798, 2163.224180129073, -83765.7775003645, 187500.0, 8227.028933409325, -187500.02235174447, -187500.02235174447, -0.098, -0.162, 0.996, 192.0, 0.0, 0.0, 0.0, 0.0, 0.0, 0.0, 0.0, 0.0, 0.0, 1.706088516680271E9, 0.0, 2024-01-24 16:28:36.680
83.0, 158780.93645345408, -9937.317363896056, 15250.30466917809, -92804.04064703472, 187500.0, -15325.630047992474, -187500.02235174447, -187500.02235174447, -0.098, -0.162, 0.996, 192.0, 0.0, 0.0, 0.0, 0.0, 0.0, 0.0, 0.0, 0.0, 0.0, 1.7060885166842415E9, 0.0, 2024-01-24 16:28:36.684
84.0, 161825.22169652244, -8490.06426215938, 15658.358115954175, -96128.683820806, 187500.0, -12231.679228744415, -187500.02235174447, -187500.02235174447, -0.098, -0.162, 0.996, 192.0, 0.0, 0.0, 0.0, 0.0, 0.0, 0.0, 0.0, 0.0, 0.0, 1.7060885166873176E9, 0.0, 2024-01-24 16:28:36.687
85.0, 153816.41284423028, -8162.387688444578, 2551.161056895382, -88285.14376701639, 187500.0, 21223.294284736432, -187500.02235174447, -187500.02235174447, -0.098, -0.162, 0.996, 192.0, 0.0, 0.0, 0.0, 0.0, 0.0, 0.0, 0.0, 0.0, 0.0, 1.7060885166913636E9, 0.0, 2024-01-24 16:28:36.691
86.0, 139927.70939203614, -11887.596474599419, -12578.06421256831, -79011.15912332048, 187500.0, 47855.66602416826, -187500.02235174447, -187500.02235174447, -0.096, -0.162, 0.992, 192.0, 253.0, 0.0, 250.0, 240.0, 31.0, 0.0, 0.0, 0.0, 0.0, 1.7060885166953225E9, 0.0, 2024-01-24 16:28:36.695
87.0, 146801.92134403245, -12294.778203341748, 1994.4908612359598, -83772.84065161237, 187500.0, 8301.527297678864, -187500.02235174447, -187500.02235174447, -0.096, -0.162, 0.992, 192.0, 0.0, 0.0, 0.0, 0.0, 0.0, 0.0, 0.0, 0.0, 0.0, 1.706088516699297E9, 0.0, 2024-01-24 16:28:36.699
88.0, 158507.68637748796, -10072.970100995315, 15127.146557229347, -92828.00171709082, 187500.0, -15355.447275095854, -187500.02235174447, -187500.02235174447, -0.096, -0.162, 0.992, 192.0, 0.0, 0.0, 0.0, 0.0, 0.0, 0.0, 0.0, 0.0, 0.0, 1.706088516703267E9, 0.0, 2024-01-24 16:28:36.703
89.0, 161618.33394984412, -8591.429423264197, 15598.589551280684, -96165.2959782238, 187500.0, -12306.512869180784, -187500.02235174447, -187500.02235174447, -0.096, -0.162, 0.992, 192.0, 0.0, 0.0, 0.0, 0.0, 0.0, 0.0, 0.0, 0.0, 0.0, 1.7060885167083025E9, 0.0, 2024-01-24 16:28:36.708
90.0, 153721.61909599532, -8213.640238480597, 2570.8082402715972, -88333.8482181845, 187500.0, 21090.59197790527, -187500.02235174447, -187500.02235174447, -0.096, -0.162, 0.992, 192.0, 0.0, 0.0, 0.0, 0.0, 0.0, 0.0, 0.0, 0.0, 0.0, 1.7060885167123144E9, 0.0, 2024-01-24 16:28:36.712
91.0, 139823.43850415212, -11939.318411269, -12614.072872885808, -79028.03469038424, 187500.0, 47870.46287899767, -187500.02235174447, -187500.02235174447, -0.096, -0.162, 0.992, 192.0, 0.0, 0.0, 0.0, 0.0, 0.0, 0.0, 0.0, 0.0, 0.0, 1.7060885167153728E9, 0.0, 2024-01-24 16:28:36.715
92.0, 146684.52998215318, -12327.612915946595, 1923.6581830570917, -83713.11679042778, 187500.0, 8445.852511626783, -187500.02235174447, -187500.02235174447, -0.096, -0.162, 0.992, 192.0, 0.0, 0.0, 0.0, 0.0, 0.0, 0.0, 0.0, 0.0, 0.0, 1.70608851671936E9, 0.0, 2024-01-24 16:28:36.719
93.0, 158383.81300971663, -10123.753264397772, 15081.526646796066, -92790.58489687263, 187500.0, -15329.631010249974, -187500.02235174447, -187500.02235174447, -0.096, -0.162, 0.992, 192.0, 0.0, 0.0, 0.0, 0.0, 0.0, 0.0, 0.0, 0.0, 0.0, 1.7060885167233136E9, 0.0, 2024-01-24 16:28:36.723
94.0, 161502.73072752127, -8649.18633093671, 15569.979318377891, -96173.67788239455, 187500.0, -12346.075456866678, -187500.02235174447, -187500.02235174447, -0.096, -0.162, 0.992, 192.0, 0.0, 0.0, 0.0, 0.0, 0.0, 0.0, 0.0, 0.0, 0.0, 1.7060885167273297E9, 0.0, 2024-01-24 16:28:36.727
95.0, 153594.79529795592, -8311.697341406028, 2546.847170215508, -88400.1658439834, 187500.0, 20940.81293831026, -187500.02235174447, -187500.02235174447, -0.09, -0.164, 0.99, 192.0, 253.0, 48.0, 250.0, 224.0, 30.0, 240.0, 0.0, 0.0, 0.0, 1.7060885167314043E9, 0.0, 2024-01-24 16:28:36.731
96.0, 139657.07447017127, -12052.887624846415, -12697.623693659747, -79062.79165301225, 187500.0, 47846.56886417495, -187500.02235174447, -187500.02235174447, -0.09, -0.164, 0.99, 192.0, 0.0, 0.0, 0.0, 0.0, 0.0, 0.0, 0.0, 0.0, 0.0, 1.706088516736369E9, 0.0, 2024-01-24 16:28:36.736
97.0, 146435.53154892108, -12464.539702479804, 1770.3252160936852, -83699.9069094547, 187500.0, 8529.001001000524, -187500.02235174447, -187500.02235174447, -0.09, -0.164, 0.99, 192.0, 0.0, 0.0, 0.0, 0.0, 0.0, 0.0, 0.0, 0.0, 0.0, 1.7060885167393556E9, 0.0, 2024-01-24 16:28:36.739
98.0, 158234.97274338876, -10194.384776876543, 15027.703646147687, -92763.47223084835, 187500.0, -15308.307446039611, -187500.02235174447, -187500.02235174447, -0.09, -0.164, 0.99, 192.0, 0.0, 0.0, 0.0, 0.0, 0.0, 0.0, 0.0, 0.0, 0.0, 1.7060885167443852E9, 0.0, 2024-01-24 16:28:36.744
99.0, 161403.10900248398, -8710.273648533064, 15548.231071022878, -96182.01508307637, 187500.0, -12357.139570372054, -187500.02235174447, -187500.02235174447, -0.09, -0.164, 0.99, 192.0, 0.0, 0.0, 0.0, 0.0, 0.0, 0.0, 0.0, 0.0, 0.0, 1.7060885167473323E9, 0.0, 2024-01-24 16:28:36.747
100.0, 153471.30190984035, -8420.058598525358, 2517.432274512324, -88471.89259194049, 187500.0, 20799.326395908167, -187500.02235174447, -187500.02235174447, -0.09, -0.164, 0.99, 192.0, 0.0, 0.0, 0.0, 0.0, 0.0, 0.0, 0.0, 0.0, 0.0, 1.7060885167513404E9, 0.0, 2024-01-24 16:28:36.751
101.0, 139511.1846341115, -12147.055524236623, -12761.57203454638, -79089.59139461415, 187500.0, 47797.573840328914, -187500.02235174447, -187500.02235174447, -0.09, -0.164, 0.99, 192.0, 0.0, 0.0, 0.0, 0.0, 0.0, 0.0, 0.0, 0.0, 0.0, 1.7060885167553468E9, 0.0, 2024-01-24 16:28:36.755
102.0, 146288.4347186607, -12513.490022836928, 1689.14368023201, -83627.80018184187, 187500.0, 8621.492519556585, -187500.02235174447, -187500.02235174447, -0.09, -0.164, 0.99, 192.0, 0.0, 0.0, 0.0, 0.0, 0.0, 0.0, 0.0, 0.0, 0.0, 1.7060885167593503E9, 0.0, 2024-01-24 16:28:36.759
103.0, 158076.65533741182, -10281.735394207883, 14967.622157051821, -92718.20994832634, 187500.0, -15315.482356009765, -187500.02235174447, -187500.02235174447, -0.09, -0.164, 0.99, 192.0, 0.0, 0.0, 0.0, 0.0, 0.0, 0.0, 0.0, 0.0, 0.0, 1.7060885167643485E9, 0.0, 2024-01-24 16:28:36.764
104.0, 161208.17943908923, -8854.285938058609, 15468.837674717626, -96200.87995539665, 187500.0, -12434.521309676327, -187500.02235174447, -187500.02235174447, -0.09, -0.164, 0.99, 192.0, 0.0, 0.0, 0.0, 0.0, 0.0, 0.0, 0.0, 0.0, 0.0, 1.706088516767419E9, 0.0, 2024-01-24 16:28:36.767
105.0, 153361.71130677598, -8525.178852698667, 2487.547992175578, -88514.65147908348, 187500.0, 20685.153685230456, -187500.02235174447, -187500.02235174447, -0.094, -0.162, 0.988, 192.0, 253.0, 16.0, 250.0, 240.0, 30.0, 224.0, 0.0, 0.0, 0.0, 1.7060885167703748E9, 0.0, 2024-01-24 16:28:36.770
106.0, 139398.01775193427, -12256.623775556538, -12837.232689527595, -79105.88581632207, 187500.0, 47785.59330530087, -187500.02235174447, -187500.02235174447, -0.094, -0.162, 0.988, 192.0, 0.0, 0.0, 0.0, 0.0, 0.0, 0.0, 0.0, 0.0, 0.0, 1.7060885167753677E9, 0.0, 2024-01-24 16:28:36.775
107.0, 146133.58183307434, -12620.465471800027, 1587.957333082835, -83553.63709373916, 187500.0, 8691.609941912882, -187500.02235174447, -187500.02235174447, -0.094, -0.162, 0.988, 192.0, 0.0, 0.0, 0.0, 0.0, 0.0, 0.0, 0.0, 0.0, 0.0, 1.7060885167793996E9, 0.0, 2024-01-24 16:28:36.779
108.0, 157943.86362360284, -10379.881904111136, 14916.414310504713, -92636.73783978676, 187500.0, -15335.55422253063, -187500.02235174447, -187500.02235174447, -0.094, -0.162, 0.988, 192.0, 0.0, 0.0, 0.0, 0.0, 0.0, 0.0, 0.0, 0.0, 0.0, 1.7060885167833993E9, 0.0, 2024-01-24 16:28:36.783
109.0, 161102.96977793812, -8957.14866604193, 15422.837784628606, -96173.27555099435, 187500.0, -12479.001281142388, -187500.02235174447, -187500.02235174447, -0.094, -0.162, 0.988, 192.0, 0.0, 0.0, 0.0, 0.0, 0.0, 0.0, 0.0, 0.0, 0.0, 1.70608851678744E9, 0.0, 2024-01-24 16:28:36.787
110.0, 153214.34625558215, -8689.173601767254, 2395.0341218750623, -88588.52399450827, 187500.0, 20564.02958202715, -187500.02235174447, -187500.02235174447, -0.094, -0.162, 0.988, 192.0, 0.0, 0.0, 0.0, 0.0, 0.0, 0.0, 0.0, 0.0, 0.0, 1.7060885167924235E9, 0.0, 2024-01-24 16:28:36.792
111.0, 139268.15411664895, -12365.454419309428, -12930.506519139592, -79121.8226101187, 187500.0, 47830.56501514495, -187500.02235174447, -187500.02235174447, -0.094, -0.162, 0.988, 192.0, 0.0, 0.0, 0.0, 0.0, 0.0, 0.0, 0.0, 0.0, 0.0, 1.706088516795454E9, 0.0, 2024-01-24 16:28:36.795
112.0, 145988.36254934818, -12685.441992931605, 1519.2033671383103, -83411.10001934768, 187500.0, 8921.989372013733, -187500.02235174447, -187500.02235174447, -0.094, -0.162, 0.988, 192.0, 0.0, 0.0, 0.0, 0.0, 0.0, 0.0, 0.0, 0.0, 0.0, 1.7060885167984598E9, 0.0, 2024-01-24 16:28:36.798
113.0, 157739.92630719263, -10478.162524481122, 14912.636865691766, -92356.06698466146, 187500.0, -15042.478149232646, -187500.02235174447, -187500.02235174447, -0.094, -0.162, 0.988, 192.0, 0.0, 0.0, 0.0, 0.0, 0.0, 0.0, 0.0, 0.0, 0.0, 1.7060885168024297E9, 0.0, 2024-01-24 16:28:36.802
114.0, 160972.74851474148, -8991.525649014193, 15506.25449493581, -95857.11012567404, 187500.0, -12161.450047665841, -187500.02235174447, -187500.02235174447, -0.094, -0.162, 0.988, 192.0, 0.0, 0.0, 0.0, 0.0, 0.0, 0.0, 0.0, 0.0, 0.0, 1.7060885168074596E9, 0.0, 2024-01-24 16:28:36.807
115.0, 153169.21808352688, -8682.132802263834, 2535.3807253099353, -88297.77250263364, 187500.0, 20852.478844222886, -187500.02235174447, -187500.02235174447, -0.094, -0.166, 0.992, 192.0, 253.0, 16.0, 250.0, 208.0, 31.0, 0.0, 0.0, 0.0, 0.0, 1.706088516811471E9, 0.0, 2024-01-24 16:28:36.811
116.0, 139181.02701676215, -12401.396024393562, -12877.331719080415, -78853.02053129919, 187500.0, 48183.78963277217, -187500.02235174447, -187500.02235174447, -0.094, -0.166, 0.992, 192.0, 0.0, 0.0, 0.0, 0.0, 0.0, 0.0, 0.0, 0.0, 0.0, 1.706088516815451E9, 0.0, 2024-01-24 16:28:36.815
117.0, 145747.58955807562, -12835.511605204536, 1433.9761655302245, -83187.24729862777, 187500.0, 9215.132500545085, -187500.02235174447, -187500.02235174447, -0.094, -0.166, 0.992, 192.0, 0.0, 0.0, 0.0, 0.0, 0.0, 0.0, 0.0, 0.0, 0.0, 1.7060885168194532E9, 0.0, 2024-01-24 16:28:36.819
118.0, 157510.3291881477, -10642.134921805255, 14800.7440329485, -92281.45686166965, 187500.0, -14975.311157144448, -187500.02235174447, -187500.02235174447, -0.094, -0.166, 0.992, 192.0, 0.0, 0.0, 0.0, 0.0, 0.0, 0.0, 0.0, 0.0, 0.0, 1.7060885168234508E9, 0.0, 2024-01-24 16:28:36.823
119.0, 160664.920290103, -9225.704875672445, 15322.433748535366, -95880.40064339647, 187500.0, -12164.422829678397, -187500.02235174447, -187500.02235174447, -0.094, -0.166, 0.992, 192.0, 0.0, 0.0, 0.0, 0.0, 0.0, 0.0, 0.0, 0.0, 0.0, 1.7060885168264923E9, 0.0, 2024-01-24 16:28:36.826
120.0, 152833.9866201862, -8954.354697985018, 2345.6814701177445, -88422.33877448307, 187500.0, 20594.740878908742, -187500.02235174447, -187500.02235174447, -0.094, -0.166, 0.992, 192.0, 0.0, 0.0, 0.0, 0.0, 0.0, 0.0, 0.0, 0.0, 0.0, 1.7060885168314793E9, 0.0, 2024-01-24 16:28:36.831
121.0, 138870.69539674468, -12656.138855950698, -13069.601424884966, -79015.62947221154, 187500.0, 47770.41647081572, -187500.02235174447, -187500.02235174447, -0.094, -0.166, 0.992, 192.0, 0.0, 0.0, 0.0, 0.0, 0.0, 0.0, 0.0, 0.0, 0.0, 1.706088516835604E9, 0.0, 2024-01-24 16:28:36.835
122.0, 145742.11338068408, -12853.30359379096, 1401.7896535145824, -83224.61941535705, 187500.0, 9005.8754689545, -187500.02235174447, -187500.02235174447, -0.094, -0.166, 0.992, 192.0, 0.0, 0.0, 0.0, 0.0, 0.0, 0.0, 0.0, 0.0, 0.0, 1.7060885168394747E9, 0.0, 2024-01-24 16:28:36.839
123.0, 157613.05780566428, -10625.39346520823, 14773.765477390943, -92387.18061294325, 187500.0, -15166.28446177059, -187500.02235174447, -187500.02235174447, -0.094, -0.166, 0.992, 192.0, 0.0, 0.0, 0.0, 0.0, 0.0, 0.0, 0.0, 0.0, 0.0, 1.7060885168435214E9, 0.0, 2024-01-24 16:28:36.843
124.0, 160818.49912625542, -9187.326930442683, 15282.915864338383, -96037.89103482856, 187500.0, -12328.752854913815, -187500.02235174447, -187500.02235174447, -0.094, -0.166, 0.992, 192.0, 0.0, 0.0, 0.0, 0.0, 0.0, 0.0, 0.0, 0.0, 0.0, 1.7060885168475597E9, 0.0, 2024-01-24 16:28:36.847
125.0, 153000.35065416704, -8920.38004641295, 2363.3616999818923, -88532.73404034783, 187500.0, 20413.602341842932, -187500.02235174447, -187500.02235174447, -0.094, -0.166, 0.99, 192.0, 253.0, 16.0, 250.0, 208.0, 30.0, 240.0, 0.0, 0.0, 0.0, 1.7060885168515444E9, 0.0, 2024-01-24 16:28:36.851
126.0, 138964.41626124576, -12653.45664661606, -13040.72297104871, -78969.20489897787, 187500.0, 47783.93927621118, -187500.02235174447, -187500.02235174447, -0.094, -0.166, 0.99, 192.0, 0.0, 0.0, 0.0, 0.0, 0.0, 0.0, 0.0, 0.0, 0.0, 1.7060885168545096E9, 0.0, 2024-01-24 16:28:36.854
127.0, 145811.5602507067, -12851.49310249008, 1394.413577844331, -83144.95779811834, 187500.0, 9128.698304736412, -187500.02235174447, -187500.02235174447, -0.094, -0.166, 0.99, 192.0, 0.0, 0.0, 0.0, 0.0, 0.0, 0.0, 0.0, 0.0, 0.0, 1.7060885168585532E9, 0.0, 2024-01-24 16:28:36.858
128.0, 157649.60290784872, -10664.598424982838, 14734.672276338611, -92369.52273482356, 187500.0, -15098.022234204083, -187500.02235174447, -187500.02235174447, -0.094, -0.166, 0.99, 192.0, 0.0, 0.0, 0.0, 0.0, 0.0, 0.0, 0.0, 0.0, 0.0, 1.706088516863526E9, 0.0, 2024-01-24 16:28:36.863
129.0, 160770.26406172087, -9293.922399750043, 15185.082278857504, -96088.2271633419, 187500.0, -12306.043482547222, -187500.02235174447, -187500.02235174447, -0.094, -0.166, 0.99, 192.0, 0.0, 0.0, 0.0, 0.0, 0.0, 0.0, 0.0, 0.0, 0.0, 1.706088516867525E9, 0.0, 2024-01-24 16:28:36.867
130.0, 152966.8006857396, -9017.543079560171, 2315.283097658527, -88575.04589260172, 187500.0, 20347.93291663324, -187500.02235174447, -187500.02235174447, -0.094, -0.166, 0.99, 192.0, 0.0, 0.0, 0.0, 0.0, 0.0, 0.0, 0.0, 0.0, 0.0, 1.7060885168715234E9, 0.0, 2024-01-24 16:28:36.871
131.0, 138931.8944730633, -12741.299002325417, -13097.339939754003, -78954.9891895043, 187500.0, 47800.41251187474, -187500.02235174447, -187500.02235174447, -0.094, -0.166, 0.99, 192.0, 0.0, 0.0, 0.0, 0.0, 0.0, 0.0, 0.0, 0.0, 0.0, 1.7060885168755653E9, 0.0, 2024-01-24 16:28:36.875
132.0, 145739.36411611608, -12962.313051499494, 1289.4274341377538, -83131.01030957823, 187500.0, 9191.752575844834, -187500.02235174447, -187500.02235174447, -0.094, -0.166, 0.99, 192.0, 0.0, 0.0, 0.0, 0.0, 0.0, 0.0, 0.0, 0.0, 0.0, 1.7060885168807347E9, 0.0, 2024-01-24 16:28:36.880
133.0, 157579.7537064259, -10776.737126915114, 14643.164234538584, -92394.1096537244, 187500.0, -15106.515897097099, -187500.02235174447, -187500.02235174447, -0.094, -0.166, 0.99, 192.0, 0.0, 0.0, 0.0, 0.0, 0.0, 0.0, 0.0, 0.0, 0.0, 1.7060885168835573E9, 0.0, 2024-01-24 16:28:36.883
134.0, 160680.36534552163, -9426.691761814567, 15086.466382320688, -96141.20079770098, 187500.0, -12341.292183553242, -187500.02235174447, -187500.02235174447, -0.094, -0.166, 0.99, 192.0, 0.0, 0.0, 0.0, 0.0, 0.0, 0.0, 0.0, 0.0, 0.0, 1.7060885168865733E9, 0.0, 2024-01-24 16:28:36.886
135.0, 152877.6842805963, -9163.589377831147, 2247.177332303206, -88651.89119003907, 187500.0, 20201.6183974288, -187500.02235174447, -187500.02235174447, -0.098, -0.164, 0.986, 192.0, 252.0, 240.0, 250.0, 224.0, 30.0, 208.0, 0.0, 0.0, 0.0, 1.7060885168907664E9, 0.0, 2024-01-24 16:28:36.890
136.0, 138867.61085600982, -12839.087884317385, -13174.073478469072, -78967.39440767698, 187500.0, 47797.66324730674, -187500.02235174447, -187500.02235174447, -0.098, -0.164, 0.986, 192.0, 0.0, 0.0, 0.0, 0.0, 0.0, 0.0, 0.0, 0.0, 0.0, 1.7060885168956354E9, 0.0, 2024-01-24 16:28:36.895
137.0, 145667.01151931426, -13039.158348936839, 1191.1021102788582, -83086.70915206781, 187500.0, 9267.904969204064, -187500.02235174447, -187500.02235174447, -0.098, -0.164, 0.986, 192.0, 0.0, 0.0, 0.0, 0.0, 0.0, 0.0, 0.0, 0.0, 0.0, 1.706088516899634E9, 0.0, 2024-01-24 16:28:36.899
138.0, 157517.2358771844, -10858.790380810546, 14574.924358716531, -92379.62572331735, 187500.0, -15106.739414541653, -187500.02235174447, -187500.02235174447, -0.098, -0.164, 0.986, 192.0, 0.0, 0.0, 0.0, 0.0, 0.0, 0.0, 0.0, 0.0, 0.0, 1.7060885169036832E9, 0.0, 2024-01-24 16:28:36.903
139.0, 160700.14663936457, -9447.76945683592, 15087.114582909893, -96132.61772783015, 187500.0, -12335.257212550308, -187500.02235174447, -187500.02235174447, -0.098, -0.164, 0.986, 192.0, 0.0, 0.0, 0.0, 0.0, 0.0, 0.0, 0.0, 0.0, 0.0, 1.7060885169076352E9, 0.0, 2024-01-24 16:28:36.907
140.0, 152990.73940405124, -9134.9567931839, 2323.307373917982, -88648.40431790405, 187500.0, 20140.955762977097, -187500.02235174447, -187500.02235174447, -0.098, -0.164, 0.986, 192.0, 0.0, 0.0, 0.0, 0.0, 0.0, 0.0, 0.0, 0.0, 0.0, 1.7060885169106972E9, 0.0, 2024-01-24 16:28:36.910
141.0, 138932.52032190806, -12836.562137193936, -13175.839266281042, -78952.30698016965, 187500.0, 47864.338501016915, -187500.02235174447, -187500.02235174447, -0.098, -0.164, 0.986, 192.0, 0.0, 0.0, 0.0, 0.0, 0.0, 0.0, 0.0, 0.0, 0.0, 1.7060885169146383E9, 0.0, 2024-01-24 16:28:36.914
142.0, 145662.09413553408, -13070.763715596642, 1119.1294931327693, -83040.28457883414, 187500.0, 9400.80844173532, -187500.02235174447, -187500.02235174447, -0.098, -0.164, 0.986, 192.0, 0.0, 0.0, 0.0, 0.0, 0.0, 0.0, 0.0, 0.0, 0.0, 1.7060885169196715E9, 0.0, 2024-01-24 16:28:36.919
143.0, 157483.59650177916, -10926.58322174349, 14514.01585507582, -92374.82009825947, 187500.0, -15096.748184770131, -187500.02235174447, -187500.02235174447, -0.098, -0.164, 0.986, 192.0, 0.0, 0.0, 0.0, 0.0, 0.0, 0.0, 0.0, 0.0, 0.0, 1.7060885169236374E9, 0.0, 2024-01-24 16:28:36.923
144.0, 160650.39165620707, -9546.340649883825, 15026.764872880563, -96186.08310056724, 187500.0, -12371.109410656622, -187500.02235174447, -187500.02235174447, -0.092, -0.164, 0.99, 192.0, 253.0, 32.0, 250.0, 224.0, 30.0, 240.0, 0.0, 0.0, 0.0, 1.706088516927631E9, 0.0, 2024-01-24 16:28:36.927
145.0, 152982.78218302515, -9210.349227231649, 2315.931298247731, -88710.96685063445, 187500.0, 20025.06196797633, -187500.02235174447, -187500.02235174447, -0.092, -0.164, 0.99, 192.0, 0.0, 0.0, 0.0, 0.0, 0.0, 0.0, 0.0, 0.0, 0.0, 1.7060885169316468E9, 0.0, 2024-01-24 16:28:36.931
146.0, 138942.3550894684, -12863.250120073571, -13208.85279284153, -78943.27687540972, 187500.0, 47926.4092953693, -187500.02235174447, -187500.02235174447, -0.092, -0.164, 0.99, 192.0, 0.0, 0.0, 0.0, 0.0, 0.0, 0.0, 0.0, 0.0, 0.0, 1.7060885169346378E9, 0.0, 2024-01-24 16:28:36.934
147.0, 145613.14381517694, -13123.066797622061, 1034.1705124581472, -83017.843427401, 187500.0, 9498.664378960655, -187500.02235174447, -187500.02235174447, -0.092, -0.164, 0.99, 192.0, 0.0, 0.0, 0.0, 0.0, 0.0, 0.0, 0.0, 0.0, 0.0, 1.7060885169386506E9, 0.0, 2024-01-24 16:28:36.938
148.0, 157471.5712632622, -10958.412105847849, 14481.158790726518, -92361.8560864754, 187500.0, -15084.722946253176, -187500.02235174447, -187500.02235174447, -0.092, -0.164, 0.99, 192.0, 0.0, 0.0, 0.0, 0.0, 0.0, 0.0, 0.0, 0.0, 0.0, 1.7060885169426596E9, 0.0, 2024-01-24 16:28:36.942
149.0, 160651.48689168537, -9585.858534080808, 15007.363558693358, -96209.61948747867, 187500.0, -12383.000538706845, -187500.02235174447, -187500.02235174447, -0.092, -0.164, 0.99, 192.0, 0.0, 0.0, 0.0, 0.0, 0.0, 0.0, 0.0, 0.0, 0.0, 1.7060885169476788E9, 0.0, 2024-01-24 16:28:36.947
150.0, 153019.7072648653, -9248.011916638841, 2328.9400135207193, -88762.8005460263, 187500.0, 19933.308056987295, -187500.02235174447, -187500.02235174447, -0.092, -0.164, 0.99, 192.0, 0.0, 0.0, 0.0, 0.0, 0.0, 0.0, 0.0, 0.0, 0.0, 1.7060885169516711E9, 0.0, 2024-01-24 16:28:36.951
151.0, 138956.1461157973, -12893.804954743977, -13252.751618951754, -78953.71514007034, 187500.0, 47978.220639016705, -187500.02235174447, -187500.02235174447, -0.092, -0.164, 0.99, 192.0, 0.0, 0.0, 0.0, 0.0, 0.0, 0.0, 0.0, 0.0, 0.0, 1.7060885169556692E9, 0.0, 2024-01-24 16:28:36.955
152.0, 145585.7629282192, -13163.076420197061, 960.5215144779104, -82988.42853169782, 187500.0, 9584.048042779928, -187500.02235174447, -187500.02235174447, -0.092, -0.164, 0.99, 192.0, 0.0, 0.0, 0.0, 0.0, 0.0, 0.0, 0.0, 0.0, 0.0, 1.7060885169596932E9, 0.0, 2024-01-24 16:28:36.959
153.0, 157515.89477251706, -10965.676422795823, 14486.590264629158, -92316.1914725532, 187500.0, -15083.94063519724, -187500.02235174447, -187500.02235174447, -0.092, -0.164, 0.99, 192.0, 0.0, 0.0, 0.0, 0.0, 0.0, 0.0, 0.0, 0.0, 0.0, 1.706088516962703E9, 0.0, 2024-01-24 16:28:36.962
154.0, 160727.3934158556, -9600.90125809923, 15028.932992092728, -96198.66713269558, 187500.0, -12394.176410934499, -187500.02235174447, -187500.02235174447, -0.094, -0.168, 0.994, 192.0, 253.0, 16.0, 250.0, 192.0, 31.0, 16.0, 0.0, 0.0, 0.0, 1.7060885169667528E9, 0.0, 2024-01-24 16:28:36.966
155.0, 153171.34149925012, -9222.933259359987, 2410.076845893484, -88766.71210130598, 187500.0, 19870.142027156595, -187500.02235174447, -187500.02235174447, -0.094, -0.168, 0.994, 192.0, 0.0, 0.0, 0.0, 0.0, 0.0, 0.0, 0.0, 0.0, 0.0, 1.7060885169707212E9, 0.0, 2024-01-24 16:28:36.970
156.0, 139072.9786840652, -12867.36284105335, -13237.731246677786, -78920.0757646651, 187500.0, 48083.63146586793, -187500.02235174447, -187500.02235174447, -0.094, -0.168, 0.994, 192.0, 0.0, 0.0, 0.0, 0.0, 0.0, 0.0, 0.0, 0.0, 0.0, 1.7060885169747572E9, 0.0, 2024-01-24 16:28:36.974
157.0, 145605.09718717303, -13203.443670683346, 903.3010486723243, -82977.02914202561, 187500.0, 9699.561858124955, -187500.02235174447, -187500.02235174447, -0.094, -0.168, 0.994, 192.0, 0.0, 0.0, 0.0, 0.0, 0.0, 0.0, 0.0, 0.0, 0.0, 1.7060885169797468E9, 0.0, 2024-01-24 16:28:36.979
158.0, 157541.7780925963, -11017.197193765307, 14466.965432997398, -92300.76876887903, 187500.0, -15081.034908418049, -187500.02235174447, -187500.02235174447, -0.094, -0.168, 0.994, 192.0, 0.0, 0.0, 0.0, 0.0, 0.0, 0.0, 0.0, 0.0, 0.0, 1.7060885169837687E9, 0.0, 2024-01-24 16:28:36.983
159.0, 160789.37480323017, -9637.222842839104, 15040.198271298203, -96196.67782743905, 187500.0, -12410.984922764888, -187500.02235174447, -187500.02235174447, -0.094, -0.168, 0.994, 192.0, 0.0, 0.0, 0.0, 0.0, 0.0, 0.0, 0.0, 0.0, 0.0, 1.7060885169867291E9, 0.0, 2024-01-24 16:28:36.986
